Wavenumber,Intensity
3999.706,2.661955
4001.634,2.659714
4003.563,2.656429
4005.491,2.654446
4007.42,2.660176
4009.348,2.666082
4011.277,2.666067
4013.205,2.663852
4015.134,2.66475
4017.062,2.669337
4018.991,2.670461
4020.919,2.670059
4022.848,2.672133
4024.776,2.673244
4026.705,2.674097
4028.633,2.676533
4030.562,2.674176
4032.49,2.675968
4034.419,2.678621
4036.347,2.675715
4038.276,2.67314
4040.204,2.678992
4042.133,2.681654
4044.061,2.682659
4045.99,2.684823
4047.918,2.685832
4049.847,2.686776
4051.775,2.686783
4053.704,2.68564
4055.632,2.68679
4057.561,2.688807
4059.489,2.685123
4061.418,2.686522
4063.346,2.690807
4065.275,2.688226
4067.203,2.687019
4069.132,2.690917
4071.06,2.694694
4072.989,2.694463
4074.917,2.696448
4076.846,2.697959
4078.774,2.70202
4080.703,2.699819
4082.631,2.694642
4084.56,2.692354
4086.488,2.692413
4088.417,2.692931
4090.345,2.695495
4092.274,2.700939
4094.202,2.7004
4096.131,2.697264
4098.059,2.697893
4099.988,2.699659
4101.916,2.705548
4103.845,2.707309
4105.773,2.705385
4107.702,2.702175
4109.63,2.70432
4111.559,2.702923
4113.487,2.702417
4115.416,2.706244
4117.344,2.709608
4119.273,2.709109
4121.201,2.705681
4123.13,2.70541
4125.058,2.702783
4126.987,2.707783
4128.915,2.712009
4130.844,2.708183
4132.772,2.709819
4134.701,2.710686
4136.629,2.705937
4138.558,2.707397
4140.486,2.710724
4142.415,2.712648
4144.343,2.708723
4146.271,2.70511
4148.2,2.711066
4150.129,2.714857
4152.057,2.716611
4153.986,2.712876
4155.914,2.715356
4157.843,2.717604
4159.771,2.714616
4161.7,2.716339
4163.628,2.719894
4165.557,2.718958
4167.485,2.719471
4169.414,2.721997
4171.342,2.723631
4173.271,2.726942
4175.199,2.729434
4177.127,2.732549
4179.056,2.732499
4180.985,2.733293
4182.913,2.735974
4184.842,2.73903
4186.77,2.740134
4188.699,2.740146
4190.627,2.739808
4192.556,2.739105
4194.484,2.746683
4196.413,2.750237
4198.341,2.744891
4200.27,2.746999
4202.198,2.750248
4204.126,2.756581
4206.055,2.757602
4207.983,2.761233
4209.912,2.767394
4211.841,2.769997
4213.769,2.767857
4215.698,2.771698
4217.626,2.774703
4219.555,2.774468
4221.483,2.777071
4223.412,2.779992
4225.34,2.781476
4227.269,2.780258
4229.197,2.781462
4231.125,2.784206
4233.054,2.783303
4234.982,2.787324
4236.911,2.793308
4238.84,2.792033
4240.768,2.787522
4242.697,2.787215
4244.625,2.787247
4246.554,2.788082
4248.482,2.785132
4250.411,2.7821
4252.339,2.782151
4254.268,2.785727
4256.196,2.789284
4258.125,2.793757
4260.053,2.799673
4261.981,2.802534
4263.91,2.803311
4265.838,2.804518
4267.767,2.805337
4269.696,2.80599
4271.624,2.809773
4273.553,2.812157
4275.481,2.812252
4277.41,2.81317
4279.338,2.81263
4281.267,2.81498
4283.195,2.817001
4285.124,2.819631
4287.052,2.818836
4288.98,2.818839
4290.909,2.821923
4292.837,2.821922
4294.766,2.822203
4296.694,2.825351
4298.623,2.82518
4300.552,2.823515
4302.48,2.823187
4304.409,2.824167
4306.337,2.821569
4308.266,2.819664
4310.194,2.819821
4312.123,2.820065
4314.051,2.82168
4315.979,2.816707
4317.908,2.807001
4319.836,2.800946
4321.765,2.79806
4323.693,2.80015
4325.622,2.801732
4327.551,2.801663
4329.479,2.805543
4331.408,2.809041
4333.336,2.811762
4335.265,2.814798
4337.193,2.817928
4339.122,2.820276
4341.05,2.821079
4342.979,2.820423
4344.907,2.823378
4346.835,2.820343
4348.764,2.822723
4350.692,2.828997
4352.621,2.833002
4354.549,2.832535
4356.478,2.831202
4358.407,2.830937
4360.335,2.832046
4362.264,2.834699
4364.192,2.834495
4366.121,2.834353
4368.049,2.836383
4369.978,2.837111
4371.906,2.837634
4373.834,2.841116
4375.763,2.843468
4377.691,2.838523
4379.62,2.836123
4381.548,2.841886
4383.477,2.841913
4385.405,2.837907
4387.334,2.839035
4389.263,2.840494
4391.191,2.841377
4393.12,2.842488
4395.048,2.84211
4396.977,2.843112
4398.905,2.845598
4400.833,2.848964
4402.762,2.850414
4404.69,2.850945
4406.619,2.856203
4408.547,2.858357
4410.476,2.859926
4412.404,2.8641
4414.333,2.86802
4416.262,2.870492
4418.19,2.872874
4420.119,2.874207
4422.047,2.879817
4423.976,2.885334
4425.904,2.889144
4427.833,2.895434
4429.761,2.898997
4431.689,2.89858
4433.618,2.903042
4435.546,2.906756
4437.475,2.913376
4439.403,2.921468
4441.332,2.927592
4443.26,2.931823
4445.189,2.937468
4447.117,2.943361
4449.046,2.950325
4450.975,2.958286
4452.903,2.963265
4454.832,2.967363
4456.76,2.976339
4458.688,2.983336
4460.617,2.98829
4462.545,2.994881
4464.474,2.999629
4466.402,3.007266
4468.331,3.013749
4470.259,3.01501
4472.188,3.0195
4474.116,3.026612
4476.045,3.034938
4477.974,3.03914
4479.902,3.045275
4481.831,3.054268
4483.759,3.061044
4485.688,3.067689
4487.616,3.071497
4489.544,3.080303
4491.473,3.090415
4493.401,3.097272
4495.33,3.105492
4497.258,3.114406
4499.187,3.120886
4501.115,3.127588
4503.044,3.132205
4504.972,3.139995
4506.901,3.149347
4508.83,3.154953
4510.758,3.162159
4512.687,3.172045
4514.615,3.180107
4516.543,3.186016
4518.472,3.196693
4520.4,3.209729
4522.329,3.216189
4524.257,3.219337
4526.186,3.226487
4528.114,3.239474
4530.043,3.250164
4531.971,3.254467
4533.9,3.263391
4535.828,3.274615
4537.757,3.285909
4539.686,3.298169
4541.614,3.305465
4543.542,3.312426
4545.471,3.321829
4547.399,3.331199
4549.328,3.342721
4551.256,3.35267
4553.185,3.361393
4555.113,3.370501
4557.042,3.383868
4558.97,3.396214
4560.899,3.405474
4562.827,3.41493
4564.756,3.42245
4566.685,3.42982
4568.613,3.4373
4570.542,3.446572
4572.47,3.454921
4574.398,3.462409
4576.327,3.470892
4578.255,3.478264
4580.184,3.481505
4582.112,3.488259
4584.041,3.4965
4585.969,3.502402
4587.898,3.507144
4589.826,3.513784
4591.755,3.519949
4593.683,3.525159
4595.612,3.528035
4597.54,3.53053
4599.469,3.534569
4601.397,3.538296
4603.326,3.542425
4605.254,3.547357
4607.183,3.552033
4609.111,3.557781
4611.04,3.563712
4612.968,3.567759
4614.897,3.56942
4616.825,3.573196
4618.754,3.578727
4620.682,3.584362
4622.611,3.588212
4624.539,3.59284
4626.468,3.596101
4628.396,3.599865
4630.325,3.602235
4632.253,3.602067
4634.182,3.605664
4636.11,3.608384
4638.039,3.610504
4639.967,3.611757
4641.896,3.61463
4643.824,3.614377
4645.753,3.613089
4647.681,3.613142
4649.61,3.614768
4651.538,3.612522
4653.467,3.608965
4655.396,3.605484
4657.324,3.601098
4659.252,3.588929
4661.181,3.582005
4663.109,3.579055
4665.038,3.57456
4666.966,3.57646
4668.895,3.582014
4670.823,3.587708
4672.752,3.590763
4674.68,3.597762
4676.609,3.610202
4678.537,3.622005
4680.466,3.630536
4682.394,3.636581
4684.323,3.645259
4686.251,3.654242
4688.18,3.656929
4690.108,3.657012
4692.037,3.657995
4693.965,3.659427
4695.894,3.66395
4697.822,3.662209
4699.751,3.66308
4701.679,3.664517
4703.608,3.664331
4705.536,3.665108
4707.465,3.661377
4709.393,3.659989
4711.322,3.660854
4713.25,3.659175
4715.179,3.657899
4717.107,3.653548
4719.036,3.647862
4720.964,3.644866
4722.893,3.642102
4724.821,3.639186
4726.75,3.6351
4728.678,3.630153
4730.606,3.629532
4732.535,3.628704
4734.464,3.627223
4736.392,3.626411
4738.321,3.627855
4740.249,3.627354
4742.178,3.626329
4744.106,3.623972
4746.035,3.620685
4747.963,3.617617
4749.892,3.616938
4751.82,3.615187
4753.749,3.614287
4755.677,3.610837
4757.605,3.607272
4759.534,3.606815
4761.463,3.602478
4763.391,3.594951
4765.32,3.590701
4767.248,3.586128
4769.177,3.577917
4771.105,3.569896
4773.034,3.564512
4774.962,3.560178
4776.891,3.556196
4778.819,3.549912
4780.748,3.547893
4782.676,3.547148
4784.604,3.544449
4786.533,3.543516
4788.462,3.544225
4790.39,3.539748
4792.319,3.537383
4794.247,3.538913
4796.176,3.537595
4798.104,3.53518
4800.033,3.530889
4801.961,3.524352
4803.89,3.520633
4805.818,3.521105
4807.747,3.519106
4809.675,3.510936
4811.604,3.503165
4813.532,3.498308
4815.46,3.49475
4817.389,3.488367
4819.317,3.48183
4821.246,3.4768
4823.175,3.46963
4825.103,3.464909
4827.032,3.464061
4828.96,3.460149
4830.889,3.455373
4832.817,3.451979
4834.746,3.448716
4836.674,3.444219
4838.603,3.43954
4840.531,3.431135
4842.459,3.420562
4844.388,3.414484
4846.316,3.407994
4848.245,3.397924
4850.174,3.393607
4852.102,3.390326
4854.031,3.385272
4855.959,3.379281
4857.888,3.373033
4859.816,3.367639
4861.745,3.365364
4863.673,3.361297
4865.602,3.35841
4867.53,3.354485
4869.458,3.351709
4871.387,3.352909
4873.315,3.35163
4875.244,3.353299
4877.172,3.354992
4879.101,3.357999
4881.03,3.360466
4882.958,3.364397
4884.887,3.366416
4886.815,3.367309
4888.744,3.368157
4890.672,3.372031
4892.601,3.373145
4894.529,3.377191
4896.458,3.381102
4898.386,3.379157
4900.314,3.379647
4902.243,3.381288
4904.171,3.384422
4906.1,3.3855
4908.028,3.385095
4909.957,3.388601
4911.886,3.389699
4913.814,3.387328
4915.743,3.387562
4917.671,3.386127
4919.6,3.385911
4921.528,3.386496
4923.457,3.384874
4925.385,3.384303
4927.313,3.38358
4929.242,3.382416
4931.17,3.383135
4933.099,3.384295
4935.027,3.384769
4936.956,3.382171
4938.885,3.379488
4940.813,3.380172
4942.742,3.378905
4944.67,3.373516
4946.599,3.368253
4948.527,3.365112
4950.456,3.357548
4952.384,3.34852
4954.313,3.338959
4956.241,3.326195
4958.169,3.31543
4960.098,3.304607
4962.026,3.292058
4963.955,3.288486
4965.883,3.287969
4967.812,3.290547
4969.74,3.295035
4971.669,3.300596
4973.598,3.301459
4975.526,3.30473
4977.455,3.308515
4979.383,3.310596
4981.312,3.315667
4983.24,3.32027
4985.168,3.323024
4987.097,3.326405
4989.025,3.332153
4990.954,3.340702
4992.882,3.348261
4994.811,3.352906
4996.739,3.361018
4998.668,3.369017
5000.597,3.374516
5002.525,3.379965
5004.454,3.379927
5006.382,3.384183
5008.311,3.388031
5010.239,3.392157
5012.167,3.392838
5014.096,3.393502
5016.024,3.394638
5017.953,3.394572
5019.881,3.396868
5021.81,3.399387
5023.738,3.401336
5025.667,3.40529
5027.596,3.407056
5029.524,3.410941
5031.452,3.416141
5033.381,3.417804
5035.31,3.4176
5037.238,3.418164
5039.167,3.420174
5041.095,3.422197
5043.023,3.420928
5044.952,3.419139
5046.88,3.419188
5048.809,3.42055
5050.737,3.418779
5052.666,3.418041
5054.595,3.420472
5056.523,3.415788
5058.451,3.409366
5060.38,3.408415
5062.309,3.408772
5064.237,3.406093
5066.166,3.405659
5068.094,3.405976
5070.022,3.408093
5071.951,3.407798
5073.879,3.405585
5075.808,3.406494
5077.736,3.407491
5079.665,3.408837
5081.593,3.405547
5083.522,3.40489
5085.45,3.406131
5087.379,3.402064
5089.308,3.399774
5091.236,3.399957
5093.165,3.398432
5095.093,3.395864
5097.021,3.395674
5098.95,3.394143
5100.878,3.39608
5102.807,3.397288
5104.735,3.399886
5106.664,3.402712
5108.592,3.402419
5110.521,3.405374
5112.449,3.407288
5114.378,3.409358
5116.307,3.410868
5118.235,3.41334
5120.163,3.414492
5122.092,3.415008
5124.021,3.417401
5125.949,3.41982
5127.877,3.41929
5129.806,3.420065
5131.734,3.422259
5133.663,3.423939
5135.591,3.424061
5137.52,3.424259
5139.448,3.42302
5141.377,3.420674
5143.305,3.417045
5145.234,3.414493
5147.162,3.414237
5149.091,3.41381
5151.02,3.411385
5152.948,3.408801
5154.876,3.407947
5156.805,3.405464
5158.733,3.402895
5160.662,3.401968
5162.59,3.402931
5164.519,3.403297
5166.447,3.407465
5168.376,3.410857
5170.304,3.404999
5172.233,3.400496
5174.161,3.404183
5176.09,3.404794
5178.019,3.403117
5179.947,3.402364
5181.875,3.403496
5183.804,3.40952
5185.732,3.401669
5187.661,3.400872
5189.589,3.401506
5191.518,3.401498
5193.446,3.403263
5195.375,3.40713
5197.303,3.407384
5199.232,3.403002
5201.16,3.402946
5203.089,3.411613
5205.018,3.423828
5206.946,3.418081
5208.874,3.408879
5210.803,3.4032
5212.731,3.405311
5214.66,3.406731
5216.588,3.410867
5218.517,3.406146
5220.445,3.405409
5222.374,3.41327
5224.302,3.420872
5226.231,3.410479
5228.159,3.410637
5230.088,3.417943
5232.016,3.416759
5233.945,3.415973
5235.873,3.417794
5237.802,3.421565
5239.73,3.41816
5241.659,3.425215
5243.587,3.431153
5245.516,3.431816
5247.444,3.43175
5249.373,3.417982
5251.301,3.426927
5253.229,3.438657
5255.158,3.433119
5257.087,3.427128
5259.015,3.435627
5260.944,3.440068
5262.872,3.441978
5264.801,3.434325
5266.729,3.434067
5268.658,3.432705
5270.586,3.425898
5272.515,3.428195
5274.443,3.429456
5276.372,3.427125
5278.3,3.43059
5280.229,3.432372
5282.157,3.43004
5284.086,3.432652
5286.014,3.430183
5287.943,3.43543
5289.871,3.434797
5291.8,3.427587
5293.729,3.43002
5295.657,3.427428
5297.585,3.431535
5299.514,3.427884
5301.442,3.425933
5303.371,3.426804
5305.299,3.428936
5307.228,3.424543
5309.156,3.418468
5311.085,3.42237
5313.013,3.427351
5314.941,3.432949
5316.87,3.436777
5318.799,3.441751
5320.727,3.447445
5322.656,3.451896
5324.584,3.458465
5326.513,3.462412
5328.441,3.450794
5330.37,3.45751
5332.298,3.453858
5334.227,3.449874
5336.155,3.458285
5338.084,3.448538
5340.012,3.429937
5341.94,3.44084
5343.869,3.440689
5345.798,3.421662
5347.726,3.418342
5349.655,3.406992
5351.583,3.408422
5353.512,3.400548
5355.44,3.386121
5357.369,3.382268
5359.297,3.381285
5361.226,3.383007
5363.154,3.375604
5365.083,3.363551
5367.011,3.362138
5368.939,3.356542
5370.868,3.352284
5372.797,3.354234
5374.725,3.357239
5376.654,3.346363
5378.582,3.331489
5380.511,3.336549
5382.439,3.338952
5384.368,3.33933
5386.296,3.32445
5388.225,3.320897
5390.153,3.320642
5392.082,3.324244
5394.01,3.314168
5395.938,3.308028
5397.867,3.298265
5399.796,3.292565
5401.724,3.29203
5403.652,3.289146
5405.581,3.282146
5407.51,3.281319
5409.438,3.279453
5411.367,3.272376
5413.295,3.263391
5415.224,3.241529
5417.152,3.235132
5419.081,3.229574
5421.009,3.229437
5422.938,3.228439
5424.866,3.226749
5426.795,3.230121
5428.723,3.222907
5430.651,3.212214
5432.58,3.222725
5434.509,3.216506
5436.437,3.208823
5438.366,3.220654
5440.294,3.222938
5442.223,3.212077
5444.151,3.216712
5446.08,3.20818
5448.008,3.20671
5449.937,3.20281
5451.865,3.200311
5453.793,3.20322
5455.722,3.201673
5457.65,3.199852
5459.579,3.204686
5461.508,3.198386
5463.436,3.196492
5465.365,3.19353
5467.293,3.194163
5469.222,3.187593
5471.15,3.185008
5473.079,3.195031
5475.007,3.18834
5476.936,3.173079
5478.864,3.177586
5480.792,3.174093
5482.721,3.173127
5484.649,3.170708
5486.578,3.172749
5488.507,3.164649
5490.435,3.165764
5492.363,3.171932
5494.292,3.164328
5496.221,3.165145
5498.149,3.166775
5500.078,3.164776
5502.006,3.166705
5503.935,3.167053
5505.863,3.171318
5507.792,3.172951
5509.72,3.170103
5511.648,3.169031
5513.577,3.170939
5515.505,3.174227
5517.434,3.172433
5519.362,3.17323
5521.291,3.172936
5523.22,3.169177
5525.148,3.169091
5527.077,3.172415
5529.005,3.173928
5530.934,3.171695
5532.862,3.170985
5534.791,3.17506
5536.719,3.174902
5538.647,3.170002
5540.576,3.168089
5542.504,3.169727
5544.433,3.170671
5546.361,3.172327
5548.29,3.17227
5550.219,3.170194
5552.147,3.170318
5554.076,3.169463
5556.004,3.169858
5557.933,3.170963
5559.861,3.172741
5561.79,3.173832
5563.718,3.176555
5565.646,3.181227
5567.575,3.183646
5569.503,3.18555
5571.432,3.190114
5573.36,3.194241
5575.289,3.194075
5577.218,3.199052
5579.146,3.203316
5581.074,3.205732
5583.003,3.20935
5584.932,3.21083
5586.86,3.213586
5588.789,3.214248
5590.717,3.21703
5592.646,3.213363
5594.574,3.212788
5596.502,3.216412
5598.431,3.213839
5600.359,3.207507
5602.288,3.203867
5604.216,3.20008
5606.145,3.198267
5608.073,3.194932
5610.002,3.189999
5611.931,3.18369
5613.859,3.176152
5615.788,3.174188
5617.716,3.173597
5619.645,3.16987
5621.573,3.167894
5623.501,3.16302
5625.43,3.156301
5627.358,3.153202
5629.287,3.151831
5631.215,3.145866
5633.144,3.142421
5635.072,3.138357
5637.001,3.13689
5638.93,3.136182
5640.858,3.131542
5642.786,3.127076
5644.715,3.119961
5646.644,3.114258
5648.572,3.105757
5650.5,3.099412
5652.429,3.09441
5654.357,3.087047
5656.286,3.081933
5658.214,3.076707
5660.143,3.07132
5662.071,3.06811
5664.0,3.069667
5665.929,3.071473
5667.857,3.073248
5669.785,3.076451
5671.714,3.078489
5673.643,3.081163
5675.571,3.082753
5677.5,3.08399
5679.428,3.088035
5681.356,3.090019
5683.285,3.094119
5685.213,3.09777
5687.142,3.102006
5689.07,3.104214
5690.999,3.105431
5692.927,3.11076
5694.856,3.11753
5696.784,3.123335
5698.713,3.126946
5700.642,3.131231
5702.57,3.13551
5704.499,3.141402
5706.427,3.147877
5708.355,3.152774
5710.284,3.155802
5712.212,3.158765
5714.141,3.161205
5716.069,3.16283
5717.998,3.163299
5719.926,3.162702
5721.855,3.159122
5723.783,3.153259
5725.712,3.14708
5727.641,3.13762
5729.569,3.128215
5731.497,3.11974
5733.426,3.115019
5735.354,3.112149
5737.283,3.109104
5739.211,3.107234
5741.14,3.106529
5743.068,3.102262
5744.997,3.10205
5746.925,3.100106
5748.854,3.088745
5750.782,3.081528
5752.711,3.081937
5754.639,3.081691
5756.568,3.078491
5758.496,3.077563
5760.425,3.077715
5762.354,3.074715
5764.282,3.071393
5766.21,3.069453
5768.139,3.067121
5770.067,3.065403
5771.996,3.063573
5773.924,3.064176
5775.853,3.067073
5777.781,3.068731
5779.71,3.069806
5781.638,3.072368
5783.567,3.06969
5785.495,3.07007
5787.424,3.073265
5789.353,3.072752
5791.281,3.074703
5793.209,3.07549
5795.138,3.073932
5797.066,3.078257
5798.995,3.08146
5800.923,3.08157
5802.852,3.079476
5804.78,3.077922
5806.709,3.082145
5808.637,3.083163
5810.566,3.08272
5812.494,3.085074
5814.423,3.085596
5816.352,3.08644
5818.28,3.090831
5820.208,3.091688
5822.137,3.096262
5824.065,3.101351
5825.994,3.103739
5827.922,3.107612
5829.851,3.111429
5831.779,3.114203
5833.708,3.120142
5835.636,3.127059
5837.565,3.12736
5839.493,3.127835
5841.422,3.131629
5843.35,3.138862
5845.279,3.145635
5847.207,3.150367
5849.136,3.160084
5851.064,3.174165
5852.993,3.184534
5854.921,3.19382
5856.85,3.209529
5858.778,3.229197
5860.707,3.250621
5862.635,3.272262
5864.563,3.290333
5866.492,3.317891
5868.421,3.3492
5870.349,3.379086
5872.278,3.409902
5874.206,3.447946
5876.135,3.486195
5878.063,3.523215
5879.992,3.560154
5881.92,3.601813
5883.849,3.640261
5885.777,3.67654
5887.706,3.711749
5889.634,3.743282
5891.563,3.771541
5893.491,3.802115
5895.42,3.826305
5897.348,3.840484
5899.277,3.856895
5901.205,3.877527
5903.134,3.900298
5905.063,3.9266
5906.991,3.952224
5908.919,3.982294
5910.848,4.019324
5912.776,4.059069
5914.705,4.104657
5916.633,4.153347
5918.562,4.196155
5920.49,4.242316
5922.419,4.291586
5924.347,4.33835
5926.276,4.385147
5928.204,4.431888
5930.133,4.472139
5932.061,4.511463
5933.99,4.553467
5935.918,4.594548
5937.847,4.628738
5939.775,4.662719
5941.704,4.696286
5943.632,4.732093
5945.561,4.760802
5947.489,4.791221
5949.418,4.82398
5951.346,4.856274
5953.274,4.887862
5955.203,4.919268
5957.132,4.949497
5959.06,4.986209
5960.989,5.025064
5962.917,5.063421
5964.846,5.100121
5966.774,5.137312
5968.703,5.171089
5970.631,5.207422
5972.56,5.242914
5974.488,5.277277
5976.417,5.309633
5978.345,5.34219
5980.273,5.372224
5982.202,5.405056
5984.131,5.438079
5986.059,5.469164
5987.988,5.497264
5989.916,5.528964
5991.845,5.556714
5993.773,5.586218
5995.702,5.614341
5997.63,5.642401
5999.559,5.667612
6001.487,5.691398
6003.416,5.714759
6005.344,5.740285
6007.272,5.766679
6009.201,5.795197
6011.13,5.818626
6013.058,5.841038
6014.986,5.862804
6016.915,5.891043
6018.844,5.915712
6020.772,5.938273
6022.701,5.958929
6024.629,5.979004
6026.558,6.002074
6028.486,6.026909
6030.415,6.046105
6032.343,6.063931
6034.271,6.080746
6036.2,6.100816
6038.129,6.11928
6040.057,6.133908
6041.985,6.149171
6043.914,6.169996
6045.843,6.185714
6047.771,6.203105
6049.7,6.217976
6051.628,6.231972
6053.557,6.245817
6055.485,6.263913
6057.414,6.280093
6059.342,6.29312
6061.271,6.306814
6063.199,6.322319
6065.128,6.332015
6067.056,6.344998
6068.984,6.360388
6070.913,6.371957
6072.842,6.381213
6074.77,6.392898
6076.698,6.405114
6078.627,6.413987
6080.556,6.420126
6082.484,6.434067
6084.413,6.447355
6086.341,6.460199
6088.27,6.467
6090.198,6.470863
6092.126,6.477119
6094.055,6.481176
6095.983,6.482202
6097.912,6.481153
6099.841,6.479946
6101.769,6.482595
6103.697,6.482588
6105.626,6.486541
6107.555,6.489815
6109.483,6.496825
6111.412,6.505883
6113.34,6.518731
6115.269,6.532146
6117.197,6.542053
6119.125,6.551796
6121.054,6.567661
6122.982,6.581034
6124.911,6.595706
6126.84,6.603936
6128.768,6.617242
6130.696,6.633368
6132.625,6.645047
6134.554,6.65956
6136.482,6.674584
6138.41,6.683173
6140.339,6.694619
6142.268,6.706015
6144.196,6.720275
6146.125,6.729763
6148.053,6.742764
6149.981,6.752258
6151.91,6.760014
6153.839,6.771231
6155.767,6.784304
6157.695,6.792275
6159.624,6.794201
6161.553,6.802681
6163.481,6.817386
6165.409,6.825952
6167.338,6.835822
6169.267,6.85025
6171.195,6.861608
6173.124,6.869225
6175.052,6.879302
6176.98,6.88236
6178.909,6.888101
6180.837,6.897892
6182.766,6.904667
6184.694,6.907386
6186.623,6.91151
6188.552,6.916857
6190.48,6.926926
6192.408,6.932688
6194.337,6.938637
6196.266,6.945451
6198.194,6.951848
6200.123,6.955519
6202.051,6.958944
6203.979,6.964533
6205.908,6.9708
6207.836,6.979059
6209.765,6.984053
6211.693,6.98404
6213.622,6.98754
6215.551,6.993796
6217.479,7.001089
6219.407,7.007145
6221.336,7.012322
6223.265,7.017584
6225.193,7.020441
6227.121,7.023221
6229.05,7.027642
6230.979,7.032581
6232.907,7.034808
6234.835,7.034907
6236.764,7.038439
6238.692,7.039584
6240.621,7.045938
6242.549,7.050694
6244.478,7.050126
6246.406,7.05117
6248.335,7.05459
6250.264,7.054929
6252.192,7.059138
6254.12,7.058615
6256.049,7.059598
6257.978,7.063118
6259.906,7.066295
6261.834,7.066915
6263.763,7.065732
6265.691,7.065529
6267.62,7.072652
6269.548,7.074902
6271.477,7.075851
6273.405,7.076551
6275.334,7.075072
6277.263,7.076976
6279.191,7.081685
6281.119,7.08833
6283.048,7.093626
6284.977,7.091342
6286.905,7.091706
6288.833,7.090982
6290.762,7.092984
6292.69,7.097267
6294.619,7.097704
6296.547,7.09629
6298.476,7.095957
6300.404,7.0971
6302.333,7.102696
6304.262,7.101283
6306.19,7.097206
6308.118,7.095019
6310.047,7.097167
6311.976,7.10014
6313.904,7.10388
6315.832,7.104622
6317.761,7.103677
6319.689,7.100063
6321.618,7.099956
6323.546,7.099504
6325.475,7.092826
6327.403,7.087939
6329.332,7.089478
6331.26,7.085559
6333.189,7.083633
6335.117,7.080588
6337.046,7.07588
6338.975,7.071891
6340.903,7.069654
6342.831,7.065613
6344.76,7.062207
6346.688,7.056731
6348.617,7.053464
6350.545,7.050085
6352.474,7.046133
6354.402,7.040915
6356.331,7.036744
6358.259,7.030545
6360.188,7.026357
6362.116,7.01833
6364.045,7.009163
6365.974,6.996956
6367.902,6.989905
6369.83,6.977969
6371.759,6.964445
6373.688,6.95276
6375.616,6.945629
6377.544,6.938994
6379.473,6.936645
6381.401,6.93049
6383.33,6.925416
6385.258,6.927278
6387.187,6.924387
6389.115,6.919695
6391.044,6.919487
6392.973,6.913649
6394.901,6.90945
6396.829,6.905684
6398.758,6.89752
6400.687,6.890265
6402.615,6.882125
6404.543,6.868676
6406.472,6.858175
6408.4,6.844913
6410.329,6.831509
6412.257,6.815566
6414.186,6.801002
6416.114,6.788666
6418.043,6.786516
6419.971,6.77925
6421.9,6.765257
6423.828,6.758653
6425.757,6.756235
6427.686,6.751532
6429.614,6.743536
6431.542,6.736306
6433.471,6.73283
6435.399,6.72569
6437.328,6.716759
6439.256,6.701588
6441.185,6.69102
6443.113,6.676991
6445.042,6.658071
6446.97,6.642315
6448.898,6.624497
6450.827,6.602885
6452.756,6.582334
6454.685,6.563312
6456.613,6.544427
6458.541,6.5187
6460.47,6.492101
6462.398,6.465142
6464.327,6.427245
6466.255,6.382439
6468.184,6.329636
6470.112,6.27425
6472.041,6.220572
6473.969,6.162104
6475.897,6.109896
6477.826,6.062318
6479.755,6.027072
6481.684,6.007648
6483.612,5.99718
6485.54,5.998942
6487.469,6.008932
6489.397,6.02167
6491.326,6.037925
6493.254,6.055427
6495.183,6.071419
6497.111,6.082692
6499.04,6.100155
6500.968,6.118518
6502.896,6.132018
6504.825,6.147944
6506.754,6.162922
6508.682,6.176126
6510.61,6.186388
6512.539,6.19549
6514.468,6.210786
6516.396,6.221638
6518.325,6.22645
6520.253,6.232477
6522.182,6.244651
6524.11,6.254543
6526.039,6.263218
6527.967,6.270501
6529.896,6.276413
6531.824,6.284064
6533.753,6.292762
6535.681,6.293595
6537.609,6.296836
6539.538,6.301854
6541.467,6.306699
6543.396,6.311451
6545.324,6.316345
6547.252,6.323404
6549.181,6.329376
6551.109,6.327853
6553.038,6.328773
6554.966,6.335156
6556.895,6.34157
6558.823,6.345886
6560.752,6.348733
6562.68,6.353015
6564.608,6.361871
6566.537,6.364067
6568.466,6.375983
6570.394,6.386086
6572.323,6.390332
6574.251,6.395414
6576.18,6.400765
6578.108,6.40318
6580.037,6.40587
6581.965,6.412385
6583.894,6.420971
6585.822,6.422075
6587.751,6.419367
6589.679,6.425072
6591.607,6.430386
6593.536,6.430671
6595.465,6.429526
6597.393,6.427737
6599.321,6.429182
6601.25,6.432485
6603.179,6.429941
6605.107,6.429499
6607.036,6.434528
6608.964,6.433382
6610.893,6.433072
6612.821,6.429153
6614.75,6.428105
6616.678,6.427629
6618.606,6.427578
6620.535,6.420808
6622.464,6.41794
6624.392,6.414795
6626.32,6.411548
6628.249,6.409925
6630.178,6.407127
6632.106,6.405457
6634.035,6.404641
6635.963,6.399452
6637.892,6.39265
6639.82,6.386465
6641.749,6.382868
6643.677,6.377598
6645.605,6.372371
6647.534,6.368693
6649.463,6.368082
6651.391,6.356596
6653.319,6.352183
6655.248,6.34976
6657.177,6.34566
6659.105,6.33416
6661.034,6.325484
6662.962,6.320754
6664.891,6.316903
6666.819,6.313673
6668.748,6.305517
6670.676,6.296061
6672.604,6.287029
6674.533,6.279153
6676.462,6.275899
6678.39,6.266199
6680.318,6.256912
6682.247,6.249963
6684.176,6.238494
6686.104,6.229783
6688.032,6.22254
6689.961,6.214223
6691.89,6.207294
6693.818,6.197298
6695.747,6.186912
6697.675,6.17376
6699.604,6.160709
6701.532,6.155067
6703.46,6.14745
6705.389,6.136953
6707.317,6.121745
6709.246,6.107276
6711.175,6.099324
6713.103,6.093409
6715.031,6.083554
6716.96,6.069046
6718.889,6.056149
6720.817,6.044648
6722.746,6.029491
6724.674,6.021234
6726.603,6.012262
6728.531,5.999775
6730.459,5.987316
6732.388,5.971995
6734.316,5.968353
6736.245,5.960256
6738.174,5.947549
6740.102,5.934078
6742.03,5.926334
6743.959,5.914799
6745.888,5.899717
6747.816,5.890997
6749.745,5.881714
6751.673,5.869012
6753.602,5.85883
6755.53,5.847
6757.458,5.839529
6759.387,5.829454
6761.315,5.814274
6763.244,5.799173
6765.173,5.790004
6767.101,5.777306
6769.029,5.768366
6770.958,5.754364
6772.887,5.738621
6774.815,5.725446
6776.743,5.713648
6778.672,5.699057
6780.601,5.68258
6782.529,5.664682
6784.458,5.64818
6786.386,5.628607
6788.314,5.607988
6790.243,5.588467
6792.171,5.5709
6794.1,5.550694
6796.028,5.533235
6797.957,5.517494
6799.886,5.494956
6801.814,5.469214
6803.742,5.449815
6805.671,5.430429
6807.6,5.410766
6809.528,5.390628
6811.457,5.371367
6813.385,5.350969
6815.313,5.336095
6817.242,5.32049
6819.17,5.297771
6821.099,5.276742
6823.027,5.254064
6824.956,5.229112
6826.885,5.209223
6828.813,5.185773
6830.741,5.166119
6832.67,5.153039
6834.599,5.137526
6836.527,5.124967
6838.455,5.115474
6840.384,5.105768
6842.313,5.094561
6844.241,5.079839
6846.169,5.074305
6848.098,5.067227
6850.026,5.05545
6851.955,5.043072
6853.884,5.033589
6855.812,5.023269
6857.74,5.008191
6859.669,4.996948
6861.598,4.991233
6863.526,4.977564
6865.454,4.965077
6867.383,4.955599
6869.312,4.943196
6871.24,4.932287
6873.168,4.92148
6875.097,4.906664
6877.025,4.894994
6878.954,4.876793
6880.882,4.859541
6882.811,4.846834
6884.739,4.836308
6886.668,4.822375
6888.597,4.805277
6890.525,4.792099
6892.453,4.781362
6894.382,4.765314
6896.311,4.746386
6898.239,4.735701
6900.167,4.727163
6902.096,4.711792
6904.024,4.701471
6905.953,4.692111
6907.881,4.681469
6909.81,4.671703
6911.738,4.661445
6913.667,4.64734
6915.596,4.638099
6917.524,4.6257
6919.452,4.612226
6921.381,4.602213
6923.31,4.587211
6925.238,4.570391
6927.166,4.555574
6929.095,4.541357
6931.023,4.521579
6932.952,4.496567
6934.88,4.483522
6936.809,4.464962
6938.737,4.443646
6940.666,4.427732
6942.594,4.409244
6944.523,4.395966
6946.451,4.380677
6948.38,4.363314
6950.309,4.353354
6952.237,4.349911
6954.165,4.351542
6956.094,4.346607
6958.022,4.342525
6959.951,4.344037
6961.879,4.346509
6963.808,4.34315
6965.736,4.342965
6967.665,4.340448
6969.593,4.33884
6971.521,4.332176
6973.45,4.33692
6975.379,4.340259
6977.308,4.338626
6979.236,4.339248
6981.164,4.338378
6983.093,4.33566
6985.021,4.333723
6986.95,4.32178
6988.878,4.316927
6990.807,4.312915
6992.735,4.30601
6994.664,4.297688
6996.592,4.296877
6998.521,4.294511
7000.449,4.284479
7002.378,4.277783
7004.307,4.268989
7006.235,4.256059
7008.163,4.246659
7010.092,4.23994
7012.021,4.234544
7013.949,4.223718
7015.877,4.208727
7017.806,4.202484
7019.734,4.196629
7021.663,4.196049
7023.591,4.195768
7025.52,4.19357
7027.448,4.192688
7029.377,4.190746
7031.305,4.187826
7033.234,4.191675
7035.162,4.192049
7037.091,4.195371
7039.02,4.197358
7040.948,4.192137
7042.876,4.186023
7044.805,4.180408
7046.733,4.168552
7048.662,4.151261
7050.59,4.138509
7052.519,4.12149
7054.447,4.102997
7056.376,4.079792
7058.304,4.053502
7060.232,4.036493
7062.161,4.032615
7064.09,4.028871
7066.019,4.037699
7067.947,4.051744
7069.875,4.075257
7071.804,4.093711
7073.732,4.121139
7075.661,4.153605
7077.589,4.187548
7079.518,4.216862
7081.446,4.235646
7083.375,4.25727
7085.303,4.275504
7087.231,4.29397
7089.16,4.30755
7091.089,4.322057
7093.018,4.342834
7094.946,4.350411
7096.874,4.36613
7098.803,4.387066
7100.731,4.402725
7102.66,4.417944
7104.588,4.441742
7106.517,4.464457
7108.445,4.482584
7110.374,4.498969
7112.302,4.52059
7114.23,4.54823
7116.159,4.57907
7118.088,4.583747
7120.016,4.59532
7121.944,4.613228
7123.873,4.628406
7125.802,4.643118
7127.73,4.649288
7129.659,4.649687
7131.587,4.648402
7133.516,4.653354
7135.444,4.648978
7137.373,4.636894
7139.301,4.615326
7141.229,4.597068
7143.158,4.583401
7145.087,4.55885
7147.015,4.527389
7148.943,4.499411
7150.872,4.466044
7152.801,4.422357
7154.729,4.374548
7156.658,4.317425
7158.586,4.255018
7160.515,4.181994
7162.443,4.10012
7164.372,4.038616
7166.3,3.976201
7168.229,3.91695
7170.157,3.872193
7172.086,3.861819
7174.014,3.857857
7175.942,3.874942
7177.871,3.908947
7179.8,3.945178
7181.729,3.977979
7183.657,4.023588
7185.585,4.07367
7187.514,4.111655
7189.442,4.154937
7191.371,4.202733
7193.299,4.256559
7195.228,4.306293
7197.156,4.350488
7199.085,4.39718
7201.013,4.45067
7202.941,4.506225
7204.87,4.551544
7206.799,4.591871
7208.727,4.649579
7210.655,4.703401
7212.584,4.746719
7214.513,4.783804
7216.441,4.827946
7218.37,4.881613
7220.298,4.924398
7222.227,4.966706
7224.155,5.02411
7226.083,5.069289
7228.012,5.119839
7229.94,5.18404
7231.869,5.220779
7233.798,5.244715
7235.726,5.296896
7237.654,5.340669
7239.583,5.395637
7241.512,5.441799
7243.44,5.462877
7245.369,5.503703
7247.297,5.547999
7249.226,5.582559
7251.154,5.632909
7253.083,5.671828
7255.011,5.707466
7256.939,5.750053
7258.868,5.799775
7260.797,5.851553
7262.725,5.88967
7264.653,5.930039
7266.582,5.977459
7268.511,6.007719
7270.439,6.050114
7272.368,6.098771
7274.296,6.140433
7276.225,6.174026
7278.153,6.212404
7280.082,6.254116
7282.01,6.295443
7283.938,6.338078
7285.867,6.387211
7287.796,6.424835
7289.724,6.458549
7291.652,6.504864
7293.581,6.547089
7295.51,6.571042
7297.438,6.620933
7299.366,6.650438
7301.295,6.682112
7303.224,6.728559
7305.152,6.780501
7307.081,6.809673
7309.009,6.847183
7310.938,6.887628
7312.866,6.916047
7314.794,6.95615
7316.723,6.983297
7318.651,7.018521
7320.58,7.053452
7322.509,7.086856
7324.437,7.112396
7326.365,7.152291
7328.294,7.162449
7330.223,7.178679
7332.151,7.198934
7334.08,7.21884
7336.008,7.240309
7337.937,7.278872
7339.865,7.290602
7341.793,7.301991
7343.722,7.318387
7345.65,7.334169
7347.579,7.343504
7349.508,7.347947
7351.436,7.378863
7353.364,7.41251
7355.293,7.42925
7357.222,7.435701
7359.15,7.464168
7361.079,7.480492
7363.007,7.502332
7364.936,7.520584
7366.864,7.551695
7368.792,7.563415
7370.721,7.575134
7372.649,7.59689
7374.578,7.6254
7376.507,7.628117
7378.435,7.649325
7380.363,7.668895
7382.292,7.674096
7384.221,7.684849
7386.149,7.700953
7388.077,7.717464
7390.006,7.730745
7391.935,7.744618
7393.863,7.756367
7395.792,7.761111
7397.72,7.767764
7399.648,7.771598
7401.577,7.77872
7403.505,7.795919
7405.434,7.803205
7407.362,7.796297
7409.291,7.802664
7411.22,7.813839
7413.148,7.823588
7415.076,7.827353
7417.005,7.831971
7418.934,7.838158
7420.862,7.841714
7422.791,7.839552
7424.719,7.838557
7426.647,7.839567
7428.576,7.848399
7430.504,7.858023
7432.433,7.86085
7434.361,7.86556
7436.29,7.867434
7438.219,7.866438
7440.147,7.87111
7442.075,7.873123
7444.004,7.875857
7445.933,7.880285
7447.861,7.883698
7449.789,7.889842
7451.718,7.893962
7453.646,7.892305
7455.575,7.894519
7457.503,7.894736
7459.432,7.89852
7461.36,7.903847
7463.289,7.906655
7465.218,7.908994
7467.146,7.910123
7469.074,7.91129
7471.003,7.912648
7472.932,7.912848
7474.86,7.917274
7476.788,7.921308
7478.717,7.917914
7480.646,7.9176
7482.574,7.916224
7484.502,7.915856
7486.431,7.916244
7488.359,7.915142
7490.288,7.917221
7492.216,7.91672
7494.145,7.920945
7496.073,7.925168
7498.002,7.921646
7499.931,7.917386
7501.859,7.918711
7503.787,7.917312
7505.716,7.910155
7507.645,7.911608
7509.573,7.914733
7511.501,7.911418
7513.43,7.910856
7515.358,7.911242
7517.287,7.904858
7519.215,7.905367
7521.144,7.914195
7523.072,7.912712
7525.001,7.909368
7526.93,7.906854
7528.858,7.906221
7530.786,7.904657
7532.715,7.901241
7534.644,7.895038
7536.572,7.894176
7538.5,7.891484
7540.429,7.892584
7542.357,7.89107
7544.286,7.895257
7546.214,7.892771
7548.143,7.884017
7550.071,7.885598
7552.0,7.877738
7553.928,7.866278
7555.857,7.868117
7557.785,7.87325
7559.714,7.865736
7561.643,7.863449
7563.571,7.855702
7565.499,7.853557
7567.428,7.849093
7569.356,7.847695
7571.285,7.845558
7573.213,7.844448
7575.142,7.841183
7577.07,7.835202
7578.999,7.831264
7580.927,7.829226
7582.855,7.833836
7584.784,7.836117
7586.713,7.828813
7588.642,7.822021
7590.57,7.816993
7592.498,7.816159
7594.427,7.817962
7596.355,7.810922
7598.284,7.808581
7600.212,7.802306
7602.141,7.798848
7604.069,7.794869
7605.998,7.783265
7607.926,7.778744
7609.854,7.775484
7611.783,7.775898
7613.712,7.772502
7615.641,7.76448
7617.569,7.759783
7619.497,7.750702
7621.426,7.739886
7623.354,7.737838
7625.283,7.734818
7627.211,7.726957
7629.14,7.720743
7631.068,7.711133
7632.997,7.708235
7634.925,7.705758
7636.854,7.696535
7638.782,7.689299
7640.711,7.685965
7642.639,7.685575
7644.568,7.677204
7646.496,7.663015
7648.425,7.654973
7650.354,7.652265
7652.282,7.648807
7654.21,7.639897
7656.139,7.637994
7658.067,7.632735
7659.996,7.635779
7661.924,7.635613
7663.853,7.62047
7665.781,7.62248
7667.71,7.617017
7669.638,7.602725
7671.566,7.603102
7673.495,7.597517
7675.424,7.595282
7677.353,7.593743
7679.281,7.587325
7681.209,7.590654
7683.138,7.583074
7685.066,7.573068
7686.995,7.568868
7688.923,7.559144
7690.852,7.556149
7692.78,7.558212
7694.709,7.558007
7696.637,7.553751
7698.565,7.548974
7700.494,7.545642
7702.423,7.546355
7704.352,7.539797
7706.28,7.539091
7708.208,7.535716
7710.137,7.528011
7712.065,7.523636
7713.994,7.517739
7715.922,7.515742
7717.851,7.501852
7719.779,7.498523
7721.708,7.500186
7723.636,7.4931
7725.564,7.488027
7727.493,7.488672
7729.422,7.485913
7731.35,7.476847
7733.279,7.473026
7735.207,7.469327
7737.136,7.469956
7739.064,7.465511
7740.993,7.462196
7742.921,7.459671
7744.85,7.45341
7746.778,7.447689
7748.707,7.44584
7750.635,7.442266
7752.563,7.435241
7754.492,7.430156
7756.421,7.424527
7758.349,7.41988
7760.277,7.411863
7762.206,7.404377
7764.135,7.403986
7766.063,7.404704
7767.992,7.399779
7769.92,7.394033
7771.849,7.383887
7773.777,7.37894
7775.706,7.370832
7777.634,7.367737
7779.563,7.367841
7781.491,7.359689
7783.42,7.355978
7785.348,7.354725
7787.276,7.351973
7789.205,7.353875
7791.134,7.348508
7793.063,7.341349
7794.991,7.340618
7796.919,7.340211
7798.848,7.339398
7800.776,7.333048
7802.705,7.327149
7804.633,7.318796
7806.562,7.310105
7808.49,7.311502
7810.419,7.308762
7812.347,7.298004
7814.275,7.291071
7816.204,7.286745
7818.133,7.28484
7820.061,7.283157
7821.989,7.277168
7823.918,7.264801
7825.847,7.260076
7827.775,7.25584
7829.704,7.252384
7831.632,7.243004
7833.561,7.235553
7835.489,7.231161
7837.417,7.224
7839.346,7.226385
7841.274,7.219509
7843.203,7.208281
7845.132,7.201204
7847.06,7.18916
7848.988,7.192044
7850.917,7.190202
7852.846,7.170492
7854.774,7.154127
7856.703,7.148701
7858.631,7.144687
7860.56,7.142963
7862.488,7.142013
7864.417,7.130481
7866.345,7.117916
7868.273,7.101873
7870.202,7.094465
7872.131,7.094296
7874.059,7.096169
7875.987,7.079531
7877.916,7.056987
7879.845,7.051507
7881.773,7.04211
7883.702,7.027201
7885.63,7.02631
7887.559,7.020393
7889.487,7.007076
7891.416,6.989672
7893.344,6.977366
7895.272,6.968956
7897.201,6.953657
7899.13,6.932794
7901.058,6.933173
7902.986,6.922019
7904.915,6.919846
7906.844,6.905513
7908.772,6.888345
7910.7,6.887769
7912.629,6.878912
7914.558,6.867553
7916.486,6.857547
7918.415,6.837405
7920.343,6.823565
7922.271,6.811703
7924.2,6.787476
7926.128,6.781182
7928.057,6.782238
7929.985,6.764144
7931.914,6.74544
7933.843,6.736208
7935.771,6.725113
7937.699,6.713659
7939.628,6.704036
7941.557,6.688425
7943.485,6.672202
7945.414,6.660989
7947.342,6.646894
7949.271,6.622449
7951.199,6.612058
7953.127,6.601471
7955.056,6.576769
7956.984,6.558116
7958.913,6.546635
7960.842,6.543464
7962.77,6.528377
7964.698,6.507762
7966.627,6.48467
7968.556,6.467423
7970.484,6.455102
7972.413,6.443513
7974.341,6.425885
7976.27,6.40448
7978.198,6.392003
7980.126,6.37401
7982.055,6.360087
7983.983,6.348691
7985.912,6.332727
7987.841,6.303127
7989.769,6.285299
7991.697,6.270883
7993.626,6.247905
7995.555,6.228254
7997.483,6.214223
7999.411,6.203452
8001.34,6.185706
8003.269,6.158713
8005.197,6.14134
8007.125,6.12263
8009.054,6.103913
8010.982,6.087113
8012.911,6.066863
8014.839,6.042202
8016.768,6.021739
8018.696,6.009629
8020.625,5.986038
8022.554,5.951938
8024.482,5.931755
8026.41,5.914297
8028.339,5.889346
8030.268,5.872231
8032.196,5.859419
8034.125,5.839117
8036.053,5.812174
8037.981,5.773309
8039.91,5.757738
8041.838,5.740829
8043.767,5.712287
8045.695,5.690955
8047.624,5.675091
8049.553,5.651561
8051.481,5.621608
8053.409,5.590274
8055.338,5.572531
8057.267,5.555738
8059.195,5.53144
8061.124,5.502902
8063.052,5.481853
8064.98,5.454052
8066.909,5.432797
8068.837,5.410543
8070.766,5.381253
8072.694,5.35997
8074.623,5.335103
8076.552,5.308281
8078.48,5.2851
8080.408,5.262584
8082.337,5.237459
8084.266,5.210102
8086.194,5.179258
8088.122,5.160299
8090.051,5.140357
8091.979,5.10561
8093.908,5.075363
8095.836,5.053279
8097.765,5.022685
8099.693,4.991151
8101.622,4.971188
8103.551,4.947481
8105.479,4.921981
8107.407,4.885754
8109.336,4.86228
8111.265,4.835175
8113.192,4.806005
8115.121,4.783888
8117.05,4.749663
8118.979,4.719826
8120.907,4.690151
8122.835,4.662623
8124.764,4.633488
8126.692,4.599641
8128.621,4.57149
8130.55,4.54009
8132.478,4.515574
8134.406,4.487831
8136.335,4.457595
8138.264,4.432712
8140.191,4.411759
8142.12,4.384497
8144.049,4.350464
8145.978,4.319371
8147.906,4.291079
8149.834,4.255136
8151.763,4.227311
8153.691,4.209269
8155.62,4.187177
8157.548,4.159193
8159.477,4.129159
8161.405,4.106251
8163.334,4.076792
8165.263,4.045698
8167.19,4.019827
8169.119,3.992748
8171.048,3.963586
8172.977,3.948853
8174.905,3.93144
8176.833,3.903845
8178.762,3.876551
8180.69,3.857257
8182.619,3.832549
8184.547,3.79936
8186.476,3.790235
8188.404,3.786018
8190.333,3.762047
8192.262,3.733775
8194.189,3.718252
8196.118,3.709135
8198.047,3.702081
8199.976,3.69906
8201.903,3.685987
8203.832,3.677695
8205.761,3.664464
8207.689,3.646099
8209.618,3.641858
8211.546,3.639483
8213.475,3.631455
8215.403,3.637018
8217.332,3.635484
8219.261,3.631649
8221.188,3.627326
8223.117,3.625292
8225.046,3.621393
8226.975,3.623213
8228.902,3.619282
8230.831,3.621886
8232.76,3.623394
8234.688,3.615691
8236.617,3.619058
8238.545,3.633047
8240.474,3.636477
8242.402,3.629314
8244.331,3.633673
8246.259,3.636242
8248.188,3.63568
8250.116,3.643393
8252.045,3.642736
8253.974,3.641568
8255.901,3.648226
8257.83,3.653079
8259.759,3.657737
8261.688,3.667712
8263.616,3.681563
8265.544,3.688575
8267.473,3.692549
8269.401,3.698344
8271.33,3.714571
8273.258,3.72418
8275.187,3.727916
8277.115,3.733638
8279.044,3.742064
8280.973,3.755895
8282.9,3.775123
8284.829,3.786713
8286.758,3.798136
8288.687,3.80302
8290.614,3.814312
8292.543,3.833809
8294.472,3.850191
8296.4,3.86923
8298.329,3.891417
8300.257,3.9109
8302.186,3.924104
8304.114,3.935462
8306.043,3.951867
8307.972,3.973945
8309.899,3.981814
8311.828,3.992058
8313.757,4.005191
8315.686,4.031816
8317.613,4.057199
8319.542,4.067265
8321.471,4.081567
8323.399,4.100247
8325.328,4.118292
8327.256,4.127574
8329.185,4.141006
8331.113,4.159508
8333.042,4.176861
8334.97,4.203136
8336.898,4.224785
8338.827,4.24173
8340.756,4.261007
8342.685,4.277768
8344.612,4.304999
8346.541,4.332067
8348.47,4.358449
8350.398,4.385489
8352.327,4.405457
8354.255,4.413666
8356.184,4.440857
8358.112,4.461176
8360.041,4.479664
8361.969,4.504083
8363.897,4.529778
8365.826,4.554321
8367.755,4.573302
8369.684,4.592402
8371.611,4.614886
8373.54,4.637207
8375.469,4.661893
8377.397,4.687116
8379.325,4.705994
8381.254,4.733284
8383.183,4.750678
8385.111,4.759802
8387.04,4.775125
8388.968,4.797117
8390.896,4.818485
8392.825,4.830204
8394.754,4.841875
8396.683,4.858672
8398.61,4.873844
8400.539,4.882437
8402.468,4.890854
8404.396,4.89981
8406.324,4.910572
8408.253,4.914641
8410.182,4.913897
8412.11,4.913119
8414.039,4.9244
8415.967,4.93122
8417.896,4.926364
8419.824,4.92617
8421.753,4.930852
8423.681,4.940253
8425.609,4.961117
8427.538,4.977791
8429.467,4.990098
8431.396,5.00822
8433.323,5.027528
8435.252,5.05317
8437.181,5.080487
8439.109,5.103434
8441.037,5.129052
8442.966,5.156538
8444.895,5.183236
8446.823,5.202702
8448.752,5.222088
8450.68,5.262217
8452.608,5.304638
8454.537,5.330434
8456.466,5.351609
8458.395,5.388877
8460.322,5.417491
8462.251,5.437722
8464.18,5.452767
8466.108,5.472538
8468.036,5.506329
8469.965,5.53566
8471.894,5.556022
8473.822,5.573046
8475.751,5.596857
8477.679,5.626879
8479.607,5.646688
8481.536,5.66351
8483.465,5.696279
8485.393,5.719161
8487.321,5.737887
8489.25,5.766289
8491.179,5.798961
8493.107,5.821611
8495.035,5.836998
8496.964,5.855724
8498.893,5.871664
8500.821,5.886693
8502.75,5.907284
8504.678,5.926554
8506.606,5.932283
8508.535,5.946173
8510.464,5.958804
8512.392,5.959198
8514.32,5.960591
8516.249,5.970956
8518.178,5.985687
8520.106,6.001133
8522.034,6.01582
8523.963,6.037773
8525.892,6.046339
8527.82,6.049875
8529.748,6.055813
8531.677,6.064251
8533.605,6.070183
8535.534,6.079287
8537.463,6.087448
8539.391,6.075758
8541.319,6.067745
8543.248,6.058851
8545.177,6.036807
8547.105,6.022826
8549.033,6.007033
8550.962,5.98249
8552.891,5.952957
8554.819,5.932127
8556.747,5.917406
8558.676,5.909318
8560.604,5.888725
8562.533,5.8695
8564.462,5.869245
8566.39,5.881073
8568.318,5.901225
8570.247,5.911402
8572.176,5.927153
8574.104,5.958106
8576.032,5.989766
8577.961,6.02829
8579.89,6.061993
8581.818,6.091635
8583.746,6.111885
8585.675,6.147394
8587.604,6.196317
8589.532,6.238074
8591.461,6.284114
8593.389,6.319013
8595.317,6.349271
8597.246,6.394269
8599.175,6.442725
8601.103,6.492275
8603.031,6.533962
8604.96,6.570884
8606.889,6.615684
8608.817,6.663918
8610.745,6.703044
8612.674,6.737025
8614.603,6.775141
8616.531,6.816983
8618.459,6.860346
8620.388,6.895032
8622.316,6.926014
8624.245,6.969583
8626.174,7.016907
8628.102,7.051431
8630.03,7.076177
8631.959,7.111157
8633.888,7.144941
8635.816,7.17343
8637.744,7.199282
8639.673,7.23207
8641.602,7.266779
8643.53,7.288888
8645.458,7.316289
8647.387,7.344824
8649.315,7.360798
8651.244,7.386761
8653.173,7.423936
8655.101,7.442924
8657.029,7.463255
8658.958,7.48509
8660.887,7.508374
8662.814,7.530166
8664.743,7.534906
8666.672,7.5484
8668.601,7.582502
8670.529,7.604685
8672.457,7.621385
8674.386,7.639787
8676.314,7.649332
8678.243,7.663502
8680.172,7.679254
8682.1,7.697211
8684.028,7.71807
8685.957,7.740185
8687.886,7.758783
8689.813,7.780013
8691.742,7.80623
8693.671,7.813039
8695.6,7.839539
8697.528,7.860609
8699.456,7.879574
8701.385,7.90882
8703.313,7.939233
8705.242,7.956053
8707.17,7.977141
8709.099,8.005774
8711.027,8.022557
8712.956,8.030428
8714.885,8.054181
8716.813,8.088495
8718.741,8.111557
8720.67,8.131072
8722.599,8.157122
8724.527,8.172868
8726.455,8.199648
8728.384,8.214942
8730.313,8.243445
8732.241,8.268668
8734.169,8.293425
8736.098,8.311101
8738.026,8.330173
8739.955,8.338213
8741.884,8.357464
8743.812,8.381655
8745.74,8.411299
8747.669,8.425935
8749.598,8.438314
8751.525,8.46122
8753.454,8.485105
8755.383,8.495538
8757.312,8.505406
8759.24,8.530725
8761.168,8.548381
8763.097,8.561649
8765.025,8.577655
8766.954,8.59412
8768.882,8.60682
8770.811,8.623112
8772.739,8.628462
8774.668,8.637425
8776.597,8.653584
8778.524,8.670932
8780.453,8.678066
8782.382,8.681478
8784.311,8.697093
8786.239,8.704307
8788.167,8.716906
8790.096,8.727862
8792.024,8.743212
8793.953,8.752783
8795.881,8.764001
8797.81,8.765292
8799.738,8.765693
8801.667,8.789676
8803.596,8.800483
8805.523,8.807003
8807.452,8.817566
8809.381,8.820896
8811.31,8.830664
8813.237,8.833375
8815.166,8.849772
8817.095,8.851164
8819.023,8.839143
8820.952,8.853635
8822.88,8.871914
8824.809,8.885216
8826.737,8.879306
8828.666,8.88113
8830.595,8.879365
8832.522,8.894809
8834.451,8.898363
8836.38,8.887876
8838.309,8.887652
8840.236,8.902732
8842.165,8.915438
8844.094,8.918895
8846.022,8.920076
8847.951,8.919111
8849.879,8.919092
8851.808,8.919599
8853.736,8.922476
8855.665,8.935269
8857.593,8.933775
8859.521,8.931876
8861.45,8.929204
8863.379,8.933167
8865.308,8.944329
8867.235,8.953552
8869.164,8.956115
8871.093,8.950453
8873.021,8.943134
8874.95,8.945818
8876.878,8.946533
8878.807,8.947784
8880.735,8.954363
8882.664,8.961346
8884.592,8.970477
8886.521,8.958111
8888.449,8.943316
8890.378,8.951015
8892.307,8.973622
8894.234,8.960407
8896.163,8.959496
8898.092,8.95915
8900.021,8.949312
8901.948,8.95035
8903.877,8.953728
8905.806,8.971007
8907.734,8.966652
8909.663,8.939234
8911.591,8.928288
8913.52,8.943951
8915.448,8.947817
8917.377,8.945889
8919.306,8.94939
8921.233,8.956458
8923.162,8.956947
8925.091,8.952025
8927.02,8.951103
8928.947,8.959775
8930.876,8.956649
8932.805,8.959669
8934.733,8.96128
8936.662,8.951064
8938.59,8.941319
8940.519,8.952518
8942.447,8.953597
8944.376,8.948194
8946.304,8.95487
8948.232,8.960759
8950.161,8.951233
8952.09,8.949618
8954.019,8.955542
8955.946,8.955524
8957.875,8.946702
8959.804,8.951107
8961.732,8.954124
8963.661,8.940896
8965.589,8.949658
8967.518,8.961723
8969.446,8.961476
8971.375,8.964884
8973.303,8.957771
8975.231,8.949385
8977.16,8.955248
8979.089,8.964808
8981.018,8.970966
8982.945,8.970937
8984.874,8.971641
8986.803,8.976791
8988.731,8.975489
8990.659,8.972402
8992.588,8.978662
8994.517,8.977087
8996.445,8.977204
8998.374,8.975933
9000.302,8.98469
9002.23,8.983591
9004.159,8.995188
9006.088,8.99754
9008.017,8.980803
9009.944,8.979209
9011.873,8.993291
9013.802,9.002463
9015.73,8.998739
9017.658,9.002837
9019.587,8.998325
9021.516,8.985391
9023.444,8.989326
9025.373,8.998301
9027.301,9.018525
9029.229,9.02296
9031.158,9.011445
9033.087,9.002522
9035.015,9.010424
9036.943,9.02274
9038.872,9.020246
9040.801,9.013915
9042.729,9.024841
9044.657,9.034768
9046.586,9.019523
9048.515,9.015885
9050.443,9.018171
9052.372,9.023328
9054.3,9.035958
9056.229,9.031023
9058.157,9.02579
9060.086,9.026496
9062.014,9.025923
9063.942,9.020483
9065.871,9.029398
9067.8,9.050437
9069.729,9.051102
9071.656,9.033342
9073.585,9.02757
9075.514,9.037527
9077.442,9.030512
9079.37,9.022697
9081.299,9.029149
9083.228,9.049399
9085.156,9.055105
9087.085,9.045331
9089.013,9.043242
9090.941,9.041693
9092.87,9.039854
9094.799,9.048749
9096.727,9.04738
9098.655,9.039171
9100.584,9.040719
9102.513,9.043004
9104.441,9.053273
9106.369,9.057173
9108.298,9.049891
9110.227,9.03234
9112.155,9.030161
9114.084,9.040547
9116.012,9.049581
9117.94,9.043835
9119.869,9.048396
9121.798,9.048589
9123.726,9.046279
9125.654,9.050317
9127.583,9.051689
9129.512,9.0397
9131.44,9.03742
9133.368,9.042405
9135.297,9.045185
9137.226,9.051483
9139.154,9.042649
9141.082,9.022261
9143.011,9.01955
9144.939,9.024911
9146.868,9.035826
9148.797,9.04306
9150.725,9.033242
9152.653,9.033016
9154.582,9.029825
9156.511,9.026759
9158.439,9.026453
9160.367,9.03178
9162.296,9.028485
9164.225,9.014286
9166.153,9.013416
9168.081,9.020143
9170.01,9.024738
9171.938,9.023624
9173.867,9.026074
9175.796,9.024172
9177.724,9.023721
9179.652,9.022848
9181.581,9.025522
9183.51,9.024281
9185.438,9.012192
9187.366,9.014384
9189.295,9.012997
9191.224,9.009194
9193.152,8.997865
9195.08,8.987206
9197.009,8.994031
9198.938,9.010809
9200.866,9.004799
9202.795,8.999537
9204.723,9.002643
9206.651,8.974582
9208.58,8.971811
9210.509,8.986575
9212.437,8.98147
9214.365,8.983017
9216.294,8.98729
9218.223,8.990908
9220.151,8.989529
9222.079,8.988443
9224.008,8.980899
9225.937,8.973814
9227.865,8.972594
9229.793,8.96962
9231.722,8.971571
9233.65,8.982709
9235.579,8.977057
9237.508,8.982629
9239.436,8.98597
9241.364,8.984922
9243.293,8.975506
9245.222,8.969837
9247.15,8.967313
9249.078,8.965722
9251.007,8.961277
9252.936,8.955205
9254.864,8.9592
9256.792,8.956026
9258.721,8.958295
9260.649,8.964189
9262.578,8.959264
9264.507,8.935277
9266.435,8.941682
9268.363,8.951584
9270.292,8.964632
9272.221,8.950771
9274.148,8.942725
9276.077,8.947055
9278.006,8.941136
9279.935,8.929947
9281.863,8.928229
9283.791,8.944379
9285.72,8.948665
9287.648,8.934731
9289.577,8.923078
9291.506,8.917806
9293.434,8.926292
9295.362,8.927279
9297.291,8.93338
9299.22,8.928011
9301.147,8.929237
9303.076,8.928843
9305.005,8.932175
9306.934,8.9283
9308.862,8.932276
9310.79,8.935691
9312.719,8.936518
9314.647,8.938995
9316.576,8.94461
9318.504,8.956233
9320.433,8.951296
9322.361,8.936499
9324.29,8.935038
9326.219,8.937224
9328.146,8.935969
9330.075,8.93359
9332.004,8.939328
9333.933,8.941125
9335.861,8.93371
9337.789,8.940097
9339.718,8.939689
9341.646,8.928496
9343.575,8.926715
9345.503,8.935514
9347.432,8.943203
9349.36,8.942523
9351.289,8.925072
9353.218,8.9198
9355.146,8.929935
9357.074,8.937339
9359.003,8.920635
9360.932,8.925283
9362.859,8.917555
9364.788,8.896525
9366.717,8.896087
9368.646,8.907916
9370.574,8.907718
9372.502,8.913952
9374.431,8.931222
9376.359,8.925184
9378.288,8.904045
9380.217,8.892525
9382.145,8.897279
9384.073,8.902492
9386.002,8.903694
9387.931,8.899879
9389.858,8.875832
9391.787,8.872035
9393.716,8.863803
9395.645,8.854956
9397.573,8.852201
9399.501,8.860556
9401.43,8.873454
9403.358,8.870459
9405.287,8.850703
9407.215,8.842572
9409.144,8.839952
9411.072,8.845132
9413.001,8.838512
9414.93,8.840014
9416.857,8.844582
9418.786,8.832521
9420.715,8.822902
9422.644,8.818051
9424.571,8.821621
9426.5,8.836464
9428.429,8.830556
9430.357,8.817518
9432.286,8.821079
9434.214,8.800011
9436.143,8.791162
9438.071,8.796131
9440.0,8.789368
9441.929,8.793672
9443.856,8.789823
9445.785,8.770555
9447.714,8.768385
9449.643,8.783146
9451.57,8.766996
9453.499,8.747951
9455.428,8.748535
9457.356,8.762052
9459.285,8.769044
9461.213,8.739194
9463.142,8.725515
9465.07,8.728086
9466.999,8.7323
9468.927,8.714748
9470.855,8.707135
9472.784,8.71745
9474.713,8.726019
9476.642,8.725021
9478.569,8.714884
9480.498,8.70907
9482.427,8.713076
9484.355,8.723322
9486.284,8.720038
9488.212,8.707095
9490.141,8.692823
9492.069,8.694037
9493.998,8.699365
9495.926,8.682519
9497.854,8.680706
9499.783,8.693758
9501.712,8.709406
9503.641,8.699514
9505.568,8.674663
9507.497,8.690762
9509.426,8.689655
9511.354,8.669691
9513.282,8.66215
9515.211,8.654011
9517.14,8.658611
9519.068,8.659555
9520.997,8.656345
9522.925,8.646628
9524.854,8.641552
9526.782,8.659176
9528.711,8.659054
9530.64,8.651545
9532.567,8.63153
9534.496,8.616779
9536.425,8.643885
9538.354,8.651395
9540.281,8.626166
9542.21,8.614378
9544.139,8.61524
9546.067,8.612252
9547.996,8.612716
9549.924,8.621045
9551.853,8.614191
9553.781,8.602424
9555.71,8.615628
9557.638,8.613794
9559.566,8.61462
9561.495,8.603081
9563.424,8.58537
9565.353,8.584724
9567.28,8.591016
9569.209,8.587317
9571.138,8.589283
9573.066,8.585886
9574.995,8.577132
9576.923,8.569375
9578.852,8.573742
9580.78,8.567266
9582.709,8.555481
9584.637,8.560174
9586.565,8.563197
9588.494,8.559238
9590.423,8.583054
9592.352,8.564003
9594.279,8.537506
9596.208,8.540897
9598.137,8.563248
9600.065,8.5543
9601.993,8.544386
9603.922,8.55695
9605.851,8.574857
9607.779,8.584556
9609.708,8.587294
9611.636,8.580225
9613.564,8.586429
9615.493,8.589064
9617.422,8.580665
9619.351,8.586001
9621.278,8.58949
9623.207,8.592447
9625.136,8.600558
9627.064,8.636128
9628.992,8.652802
9630.921,8.648727
9632.85,8.650835
9634.778,8.626769
9636.707,8.614801
9638.635,8.632367
9640.563,8.634398
9642.492,8.644601
9644.421,8.652757
9646.349,8.662229
9648.277,8.66324
9650.206,8.685476
9652.135,8.693518
9654.063,8.701431
9655.991,8.727939
9657.92,8.720053
9659.849,8.715328
9661.777,8.726919
9663.706,8.729653
9665.634,8.731918
9667.563,8.736259
9669.491,8.746998
9671.42,8.768925
9673.348,8.760826
9675.276,8.775342
9677.205,8.797112
9679.134,8.79013
9681.063,8.787463
9682.99,8.782011
9684.919,8.790488
9686.848,8.783441
9688.776,8.792093
9690.704,8.814712
9692.633,8.836912
9694.562,8.848999
9696.49,8.85075
9698.419,8.839553
9700.347,8.845757
9702.275,8.854544
9704.204,8.865376
9706.133,8.859614
9708.062,8.872717
9709.989,8.892078
9711.918,8.887037
9713.847,8.897881
9715.775,8.910956
9717.703,8.918885
9719.632,8.925903
9721.561,8.919709
9723.489,8.919353
9725.418,8.933644
9727.346,8.946079
9729.274,8.957221
9731.203,8.977535
9733.132,8.983913
9735.06,8.993866
9736.988,8.984937
9738.917,8.988042
9740.846,8.997736
9742.774,8.988688
9744.702,8.974775
9746.631,8.992131
9748.56,9.010423
9750.488,9.030782
9752.416,9.008181
9754.345,8.992411
9756.273,9.025124
9758.202,9.042343
9760.131,9.037545
9762.059,9.043379
9763.987,9.05187
9765.916,9.055326
9767.845,9.055068
9769.773,9.05828
9771.701,9.078197
9773.63,9.066524
9775.559,9.060928
9777.487,9.074809
9779.415,9.061384
9781.344,9.030732
9783.272,9.040787
9785.201,9.05943
9787.13,9.072421
9789.058,9.078582
9790.986,9.078686
9792.915,9.067557
9794.844,9.058945
9796.771,9.063984
9798.7,9.063724
9800.629,9.062904
9802.558,9.052326
9804.486,9.060797
9806.414,9.07566
9808.343,9.088486
9810.271,9.082894
9812.2,9.074673
9814.129,9.097612
9816.057,9.105078
9817.985,9.088219
9819.914,9.085495
9821.843,9.10313
9823.771,9.103017
9825.699,9.103486
9827.628,9.1094
9829.557,9.087329
9831.485,9.07953
9833.413,9.116145
9835.342,9.121228
9837.271,9.10256
9839.199,9.111933
9841.127,9.116126
9843.056,9.137513
9844.984,9.155433
9846.913,9.152408
9848.842,9.15373
9850.77,9.146192
9852.698,9.149111
9854.627,9.164656
9856.556,9.170862
9858.484,9.167267
9860.412,9.172093
9862.341,9.182482
9864.27,9.187016
9866.198,9.199191
9868.126,9.213942
9870.055,9.234086
9871.983,9.24896
9873.912,9.24957
9875.841,9.244177
9877.769,9.243361
9879.697,9.243652
9881.626,9.245212
9883.555,9.256052
9885.482,9.260447
9887.411,9.271761
9889.34,9.275387
9891.269,9.282806
9893.197,9.30117
9895.125,9.290562
9897.054,9.295655
9898.982,9.310104
9900.911,9.31599
9902.84,9.338058
9904.768,9.343776
9906.696,9.347589
9908.625,9.353408
9910.554,9.360123
9912.481,9.375219
9914.41,9.363952
9916.339,9.359569
9918.268,9.358247
9920.196,9.364815
9922.124,9.379444
9924.053,9.397583
9925.981,9.407795
9927.91,9.414267
9929.838,9.39603
9931.767,9.370784
9933.695,9.412413
9935.624,9.448336
9937.553,9.445219
9939.48,9.435832
9941.409,9.431892
9943.338,9.429762
9945.267,9.428529
9947.195,9.458893
9949.123,9.490522
9951.052,9.472134
9952.98,9.477179
9954.909,9.472055
9956.837,9.479825
9958.766,9.492969
9960.694,9.483991
9962.623,9.489851
9964.552,9.51476
9966.479,9.523307
9968.408,9.515059
9970.337,9.513203
9972.266,9.542088
9974.193,9.530624
9976.122,9.505733
9978.051,9.505632
9979.979,9.538939
9981.908,9.542645
9983.836,9.544127
9985.765,9.56041
9987.693,9.557119
9989.622,9.540593
9991.551,9.548497
9993.479,9.549539
9995.407,9.539831
9997.336,9.532654
9999.265,9.531054
10001.19,9.570709
10003.12,9.587021
10005.05,9.570161
10006.98,9.562119
10008.91,9.556187
10010.83,9.563113
10012.76,9.56512
10014.69,9.546691
10016.62,9.576987
10018.55,9.584573
10020.48,9.593645
10022.41,9.611852
10024.33,9.594303
10026.26,9.585128
10028.19,9.60183
10030.12,9.619005
10032.05,9.62069
10033.98,9.610183
10035.91,9.610556
10037.83,9.629292
10039.76,9.631675
10041.69,9.651214
10043.62,9.654836
10045.55,9.632913
10047.48,9.625557
10049.41,9.638555
10051.33,9.650523
10053.26,9.645638
10055.19,9.654781
10057.12,9.658755
10059.05,9.663049
10060.98,9.662626
10062.9,9.677792
10064.83,9.702185
10066.76,9.719747
10068.69,9.707558
10070.62,9.695796
10072.55,9.679598
10074.48,9.650399
10076.4,9.654202
10078.33,9.677844
10080.26,9.690133
10082.19,9.681775
10084.12,9.70014
10086.05,9.714791
10087.98,9.72172
10089.9,9.716445
10091.83,9.718332
10093.76,9.72578
10095.69,9.725241
10097.62,9.701093
10099.55,9.700763
10101.47,9.700922
10103.4,9.692198
10105.33,9.694974
10107.26,9.673309
10109.19,9.673515
10111.12,9.696152
10113.05,9.701902
10114.97,9.683815
10116.9,9.695936
10118.83,9.708539
10120.76,9.737115
10122.69,9.742293
10124.62,9.750779
10126.54,9.753702
10128.47,9.740258
10130.4,9.757249
10132.33,9.756905
10134.26,9.748016
10136.19,9.747487
10138.12,9.744055
10140.04,9.740083
10141.97,9.750679
10143.9,9.759955
10145.83,9.785051
10147.76,9.784142
10149.69,9.745045
10151.62,9.739026
10153.54,9.755698
10155.47,9.74391
10157.4,9.730776
10159.33,9.753757
10161.26,9.769719
10163.19,9.771025
10165.12,9.762672
10167.04,9.776895
10168.97,9.785722
10170.9,9.781413
10172.83,9.765447
10174.76,9.756776
10176.69,9.751604
10178.61,9.771925
10180.54,9.777061
10182.47,9.755283
10184.4,9.759983
10186.33,9.767035
10188.26,9.779469
10190.19,9.766276
10192.11,9.759372
10194.04,9.764977
10195.97,9.782163
10197.9,9.775573
10199.83,9.759212
10201.76,9.744744
10203.69,9.768952
10205.61,9.795196
10207.54,9.786405
10209.47,9.78883
10211.4,9.801686
10213.33,9.805872
10215.26,9.804448
10217.18,9.76164
10219.11,9.78195
10221.04,9.801039
10222.97,9.799325
10224.9,9.80628
10226.83,9.78288
10228.76,9.758644
10230.68,9.761828
10232.61,9.763215
10234.54,9.758883
10236.47,9.758333
10238.4,9.745319
10240.33,9.733962
10242.25,9.752735
10244.18,9.768967
10246.11,9.760856
10248.04,9.775625
10249.97,9.771432
10251.9,9.769407
10253.83,9.76492
10255.75,9.792815
10257.68,9.802986
10259.61,9.793501
10261.54,9.793938
10263.47,9.813189
10265.4,9.810147
10267.33,9.775708
10269.25,9.754315
10271.18,9.776415
10273.11,9.791556
10275.04,9.766826
10276.97,9.742707
10278.9,9.748065
10280.83,9.753134
10282.75,9.770318
10284.68,9.766499
10286.61,9.735981
10288.54,9.766142
10290.47,9.784523
10292.4,9.760629
10294.32,9.743934
10296.25,9.769186
10298.18,9.793302
10300.11,9.79686
10302.04,9.786351
10303.97,9.781347
10305.9,9.792666
10307.82,9.776146
10309.75,9.771978
10311.68,9.771763
10313.61,9.76877
10315.54,9.743016
10317.47,9.713372
10319.4,9.723835
10321.32,9.773508
10323.25,9.80156
10325.18,9.77864
10327.11,9.793627
10329.04,9.780593
10330.97,9.777637
10332.89,9.73352
10334.82,9.702
10336.75,9.728212
10338.68,9.748219
10340.61,9.749692
10342.54,9.749241
10344.47,9.749532
10346.39,9.773427
10348.32,9.758068
10350.25,9.730672
10352.18,9.743319
10354.11,9.743385
10356.04,9.762333
10357.96,9.732957
10359.89,9.7228
10361.82,9.745035
10363.75,9.763384
10365.68,9.751423
10367.61,9.752068
10369.54,9.730103
10371.46,9.750708
10373.39,9.760408
10375.32,9.746343
10377.25,9.712805
10379.18,9.69241
10381.11,9.718054
10383.04,9.736785
10384.96,9.72077
10386.89,9.714232
10388.82,9.743678
10390.75,9.748905
10392.68,9.756886
10394.61,9.765777
10396.54,9.758083
10398.46,9.724751
10400.39,9.716414
10402.32,9.735718
10404.25,9.77718
10406.18,9.770279
10408.11,9.719491
10410.03,9.698503
10411.96,9.707446
10413.89,9.740818
10415.82,9.737864
10417.75,9.713093
10419.68,9.709555
10421.61,9.725636
10423.53,9.722355
10425.46,9.707726
10427.39,9.678206
10429.32,9.647639
10431.25,9.629938
10433.18,9.637995
10435.1,9.667663
10437.03,9.657508
10438.96,9.646187
10440.89,9.657166
10442.82,9.653887
10444.75,9.662268
10446.68,9.69714
10448.6,9.679478
10450.53,9.640341
10452.46,9.675159
10454.39,9.668162
10456.32,9.657075
10458.25,9.671679
10460.18,9.673657
10462.1,9.652258
10464.03,9.629601
10465.96,9.638878
10467.89,9.665961
10469.82,9.662607
10471.75,9.657623
10473.67,9.608093
10475.6,9.599745
10477.53,9.614314
10479.46,9.632007
10481.39,9.616547
10483.32,9.592251
10485.25,9.616261
10487.17,9.596687
10489.1,9.580716
10491.03,9.578794
10492.96,9.591031
10494.89,9.588773
10496.82,9.559243
10498.75,9.538175
10500.67,9.521272
10502.6,9.492398
10504.53,9.502378
10506.46,9.542887
10508.39,9.54848
10510.32,9.567077
10512.25,9.538226
10514.17,9.524442
10516.1,9.532063
10518.03,9.537685
10519.96,9.532436
10521.89,9.513976
10523.82,9.462951
10525.74,9.454804
10527.67,9.429079
10529.6,9.43383
10531.53,9.402283
10533.46,9.416258
10535.39,9.433276
10537.32,9.390141
10539.24,9.360744
10541.17,9.4107
10543.1,9.418715
10545.03,9.400454
10546.96,9.396162
10548.89,9.379038
10550.81,9.347248
10552.74,9.327057
10554.67,9.340524
10556.6,9.338396
10558.53,9.280575
10560.46,9.270097
10562.39,9.304382
10564.31,9.281931
10566.24,9.257856
10568.17,9.262233
10570.1,9.239007
10572.03,9.231858
10573.96,9.225388
10575.89,9.18471
10577.81,9.165775
10579.74,9.174052
10581.67,9.174091
10583.6,9.142529
10585.53,9.110047
10587.46,9.10323
10589.38,9.0667
10591.31,9.028892
10593.24,9.03736
10595.17,9.077826
10597.1,9.05473
10599.03,8.993868
10600.96,8.967495
10602.88,8.944145
10604.81,8.942389
10606.74,8.899442
10608.67,8.86403
10610.6,8.868358
10612.53,8.891028
10614.46,8.854253
10616.38,8.801217
10618.31,8.815541
10620.24,8.809263
10622.17,8.808049
10624.1,8.793679
10626.03,8.75268
10627.96,8.727415
10629.88,8.70267
10631.81,8.678921
10633.74,8.621408
10635.67,8.609328
10637.6,8.601766
10639.53,8.564811
10641.45,8.547229
10643.38,8.532488
10645.31,8.5125
10647.24,8.479401
10649.17,8.479527
10651.1,8.453765
10653.03,8.418708
10654.95,8.428056
10656.88,8.444654
10658.81,8.382093
10660.74,8.298485
10662.67,8.275722
10664.6,8.292731
10666.52,8.297394
10668.45,8.262143
10670.38,8.221971
10672.31,8.23109
10674.24,8.207746
10676.17,8.156608
10678.1,8.177189
10680.02,8.164562
10681.95,8.13124
10683.88,8.08301
10685.81,8.051805
10687.74,8.042712
10689.67,8.068192
10691.59,8.074932
10693.52,8.042368
10695.45,8.02782
10697.38,8.014684
10699.31,7.975379
10701.24,7.983068
10703.17,7.996932
10705.09,7.980274
10707.02,7.955182
10708.95,7.960057
10710.88,7.943259
10712.81,7.930221
10714.74,7.947992
10716.67,7.951663
10718.59,7.969753
10720.52,7.967304
10722.45,7.971287
10724.38,7.970748
10726.31,7.938229
10728.24,7.905574
10730.17,7.915184
10732.09,7.902059
10734.02,7.940715
10735.95,7.959567
10737.88,7.92627
10739.81,7.927887
10741.74,7.996376
10743.67,8.027872
10745.59,7.986846
10747.52,7.98902
10749.45,8.017443
10751.38,8.006577
10753.31,8.014766
10755.24,8.0448
10757.16,8.042892
10759.09,8.013747
10761.02,8.050865
10762.95,8.064083
10764.88,8.092245
10766.81,8.085093
10768.74,8.035844
10770.66,8.032244
10772.59,8.042896
10774.52,8.051984
10776.45,8.080205
10778.38,8.110218
10780.31,8.144773
10782.23,8.118174
10784.16,8.138415
10786.09,8.178804
10788.02,8.204082
10789.95,8.229117
10791.88,8.231257
10793.81,8.239952
10795.73,8.272918
10797.66,8.259222
10799.59,8.298555
10801.52,8.361058
10803.45,8.362284
10805.38,8.290984
10807.3,8.296786
10809.23,8.329679
10811.16,8.378134
10813.09,8.404131
10815.02,8.409845
10816.95,8.377812
10818.88,8.379655
10820.8,8.39835
10822.73,8.417933
10824.66,8.430528
10826.59,8.444933
10828.52,8.503274
10830.45,8.564354
10832.38,8.579429
10834.3,8.580035
10836.23,8.59927
10838.16,8.604494
10840.09,8.649443
10842.02,8.710458
10843.95,8.700239
10845.88,8.678345
10847.8,8.707376
10849.73,8.721428
10851.66,8.709843
10853.59,8.718535
10855.52,8.732352
10857.45,8.739088
10859.38,8.748732
10861.3,8.802693
10863.23,8.788278
10865.16,8.77958
10867.09,8.841467
10869.02,8.881006
10870.95,8.89901
10872.87,8.892043
10874.8,8.874732
10876.73,8.861707
10878.66,8.928087
10880.59,8.984332
10882.52,8.972561
10884.45,8.947873
10886.37,8.96902
10888.3,8.973363
10890.23,8.976377
10892.16,9.031573
10894.09,9.085107
10896.02,9.054882
10897.94,9.075317
10899.87,9.107279
10901.8,9.148821
10903.73,9.126786
10905.66,9.103035
10907.59,9.143058
10909.52,9.14154
10911.44,9.162914
10913.37,9.219652
10915.3,9.238424
10917.23,9.221453
10919.16,9.210851
10921.09,9.238119
10923.01,9.229576
10924.94,9.288976
10926.87,9.318727
10928.8,9.273848
10930.73,9.287294
10932.66,9.292983
10934.59,9.315757
10936.51,9.348138
10938.44,9.391934
10940.37,9.422385
10942.3,9.387169
10944.23,9.38716
10946.16,9.425208
10948.09,9.434693
10950.01,9.423244
10951.94,9.407866
10953.87,9.456009
10955.8,9.533693
10957.73,9.536738
10959.66,9.543646
10961.58,9.536487
10963.51,9.514405
10965.44,9.563458
10967.37,9.589852
10969.3,9.532353
10971.23,9.509022
10973.16,9.542743
10975.08,9.558765
10977.01,9.615552
10978.94,9.6128
10980.87,9.580734
10982.8,9.609838
10984.73,9.616902
10986.66,9.625318
10988.58,9.632711
10990.51,9.641031
10992.44,9.635787
10994.37,9.666425
10996.3,9.704021
10998.23,9.713778
11000.16,9.684058
11002.08,9.661077
11004.01,9.660571
11005.94,9.666742
11007.87,9.713623
11009.8,9.7531
11011.73,9.706389
11013.65,9.670885
11015.58,9.721236
11017.51,9.752647
11019.44,9.760277
11021.37,9.797945
11023.3,9.848109
11025.23,9.844855
11027.15,9.783669
11029.08,9.758206
11031.01,9.767508
11032.94,9.752705
11034.87,9.74905
11036.8,9.823366
11038.72,9.859992
11040.65,9.859514
11042.58,9.871922
11044.51,9.86624
11046.44,9.851352
11048.37,9.889046
11050.3,9.901723
11052.22,9.907414
11054.15,9.896879
11056.08,9.895972
11058.01,9.894025
11059.94,9.894303
11061.87,9.915761
11063.79,9.865229
11065.72,9.840549
11067.65,9.843817
11069.58,9.890988
11071.51,9.914084
11073.44,9.950462
11075.37,9.911
11077.29,9.887799
11079.22,9.921422
11081.15,9.940509
11083.08,9.99771
11085.01,10.00859
11086.94,9.945123
11088.87,9.928113
11090.79,9.930906
11092.72,9.922369
11094.65,9.903664
11096.58,9.974042
11098.51,10.01825
11100.44,9.966109
11102.37,9.972775
11104.29,9.972593
11106.22,9.942237
11108.15,9.971498
11110.08,9.98407
11112.01,9.949358
11113.94,9.977921
11115.87,9.955482
11117.79,9.928327
11119.72,9.938354
11121.65,9.970049
11123.58,9.950809
11125.51,9.910295
11127.44,9.897247
11129.36,9.932461
11131.29,10.00708
11133.22,10.05647
11135.15,10.02102
11137.08,10.0051
11139.01,9.990088
11140.94,9.992732
11142.86,10.05894
11144.79,10.06444
11146.72,10.07463
11148.65,10.01801
11150.58,10.01891
11152.51,10.06785
11154.43,10.05578
11156.36,9.989754
11158.29,10.03594
11160.22,10.03668
11162.15,10.05234
11164.08,10.06894
11166.01,10.08343
11167.93,10.04961
11169.86,10.04573
11171.79,10.0662
11173.72,10.13313
11175.65,10.15097
11177.58,10.14328
11179.5,10.13533
11181.43,10.09164
11183.36,10.05776
11185.29,10.09875
11187.22,10.11595
11189.15,10.0907
11191.08,10.1378
11193.0,10.14859
11194.93,10.1279
11196.86,10.16802
11198.79,10.19868
11200.72,10.22525
11202.65,10.22824
11204.58,10.18981
11206.5,10.15804
11208.43,10.16384
11210.36,10.16786
11212.29,10.22555
11214.22,10.21968
11216.15,10.15151
11218.08,10.17403
11220.0,10.19466
11221.93,10.25846
11223.86,10.23999
11225.79,10.17961
11227.72,10.16533
11229.65,10.22033
11231.58,10.26716
11233.5,10.23791
11235.43,10.24409
11237.36,10.31018
11239.29,10.32038
11241.22,10.29447
11243.15,10.24881
11245.07,10.20026
11247.0,10.2135
11248.93,10.20857
11250.86,10.23856
11252.79,10.28271
11254.72,10.3237
11256.65,10.28185
11258.57,10.34361
11260.5,10.37703
11262.43,10.34824
11264.36,10.31711
11266.29,10.2763
11268.22,10.26955
11270.14,10.26803
11272.07,10.2946
11274.0,10.36751
11275.93,10.36247
11277.86,10.31357
11279.79,10.3124
11281.72,10.3309
11283.64,10.37703
11285.57,10.3745
11287.5,10.32627
11289.43,10.28173
11291.36,10.28047
11293.29,10.32865
11295.21,10.38
11297.14,10.34595
11299.07,10.33206
11301.0,10.32033
11302.93,10.32477
11304.86,10.33132
11306.79,10.41049
11308.71,10.43228
11310.64,10.42039
11312.57,10.41547
11314.5,10.34836
11316.43,10.28381
11318.36,10.28209
11320.29,10.33921
11322.21,10.39761
11324.14,10.40857
11326.07,10.3617
11328.0,10.45047
11329.93,10.52949
11331.86,10.45329
11333.79,10.43297
11335.71,10.44111
11337.64,10.41968
11339.57,10.409
11341.5,10.45971
11343.43,10.4658
11345.36,10.41909
11347.28,10.38104
11349.21,10.37339
11351.14,10.42949
11353.07,10.43837
11355.0,10.40673
11356.93,10.38173
11358.86,10.39155
11360.78,10.41592
11362.71,10.43323
11364.64,10.47191
11366.57,10.4398
11368.5,10.452
11370.43,10.43377
11372.36,10.37883
11374.28,10.37996
11376.21,10.43322
11378.14,10.52022
11380.07,10.5162
11382.0,10.42882
11383.93,10.38612
11385.85,10.51623
11387.78,10.51994
11389.71,10.48233
11391.64,10.48893
11393.57,10.4813
11395.5,10.4313
11397.43,10.39424
11399.35,10.39077
11401.28,10.45983
11403.21,10.49657
11405.14,10.47914
11407.07,10.52959
11409.0,10.53408
11410.92,10.46092
11412.85,10.50793
11414.78,10.51165
11416.71,10.41556
11418.64,10.42357
11420.57,10.4823
11422.5,10.43476
11424.42,10.47018
11426.35,10.51794
11428.28,10.50004
11430.21,10.54781
11432.14,10.6059
11434.07,10.57907
11436.0,10.52951
11437.92,10.57944
11439.85,10.631
11441.78,10.60932
11443.71,10.58876
11445.64,10.57344
11447.57,10.59081
11449.5,10.602
11451.42,10.65331
11453.35,10.60821
11455.28,10.51484
11457.21,10.56241
11459.14,10.58264
11461.07,10.57478
11462.99,10.53172
11464.92,10.55563
11466.85,10.61144
11468.78,10.56423
11470.71,10.54561
11472.64,10.56955
11474.57,10.53481
11476.49,10.47738
11478.42,10.50768
11480.35,10.57376
11482.28,10.61628
11484.21,10.67418
11486.14,10.55734
11488.07,10.50283
11489.99,10.50499
11491.92,10.53197
11493.85,10.56598
11495.78,10.64536
11497.71,10.63046
11499.64,10.49592
11501.56,10.55094
11503.49,10.55218
11505.42,10.52616
11507.35,10.52709
11509.28,10.55049
11511.21,10.5822
11513.14,10.68194
11515.06,10.63673
11516.99,10.52892
11518.92,10.56551
11520.85,10.60219
11522.78,10.64783
11524.71,10.60724
11526.63,10.60632
11528.56,10.59752
11530.49,10.60516
11532.42,10.64069
11534.35,10.68191
11536.28,10.72536
11538.21,10.68569
11540.13,10.63045
11542.06,10.62667
11543.99,10.64148
11545.92,10.62303
11547.85,10.64008
11549.78,10.65524
11551.71,10.64838
11553.63,10.59262
11555.56,10.65734
11557.49,10.64542
11559.42,10.65291
11561.35,10.69447
11563.28,10.63795
11565.21,10.57271
11567.13,10.6587
11569.06,10.74211
11570.99,10.70199
11572.92,10.60707
11574.85,10.63318
11576.78,10.67345
11578.7,10.69259
11580.63,10.63644
11582.56,10.54993
11584.49,10.53436
11586.42,10.65274
11588.35,10.7318
11590.28,10.68958
11592.2,10.61986
11594.13,10.56982
11596.06,10.64161
11597.99,10.73581
11599.92,10.70759
11601.85,10.71969
11603.78,10.66422
11605.7,10.65038
11607.63,10.72663
11609.56,10.79437
11611.49,10.74673
11613.42,10.6404
11615.35,10.67947
11617.27,10.69358
11619.2,10.6627
11621.13,10.74861
11623.06,10.70028
11624.99,10.64501
11626.92,10.67937
11628.85,10.78524
11630.77,10.72886
11632.7,10.6852
11634.63,10.84321
11636.56,10.87611
11638.49,10.78614
11640.42,10.7804
11642.34,10.80633
11644.27,10.85608
11646.2,10.78419
11648.13,10.85131
11650.06,10.76773
11651.99,10.7452
11653.92,10.75074
11655.84,10.6709
11657.77,10.63661
11659.7,10.6638
11661.63,10.72808
11663.56,10.8101
11665.49,10.77374
11667.42,10.81374
11669.34,10.85624
11671.27,10.82009
11673.2,10.84003
11675.13,10.78877
11677.06,10.79682
11678.99,10.74204
11680.92,10.75917
11682.84,10.74622
11684.77,10.64009
11686.7,10.7424
11688.63,10.75695
11690.56,10.7238
11692.49,10.75443
11694.41,10.70544
11696.34,10.68405
11698.27,10.61033
11700.2,10.64585
11702.13,10.724
11704.06,10.68531
11705.99,10.65181
11707.91,10.63757
11709.84,10.7084
11711.77,10.72409
11713.7,10.75212
11715.63,10.72136
11717.56,10.76382
11719.48,10.8569
11721.41,10.72475
11723.34,10.70842
11725.27,10.73991
11727.2,10.71722
11729.13,10.66874
11731.06,10.68179
11732.98,10.6948
11734.91,10.80932
11736.84,10.76149
11738.77,10.65489
11740.7,10.73295
11742.63,10.78883
11744.56,10.75866
11746.48,10.7964
11748.41,10.82489
11750.34,10.79547
11752.27,10.65728
11754.2,10.6855
11756.13,10.68506
11758.05,10.74989
11759.98,10.72444
11761.91,10.68866
11763.84,10.7435
11765.77,10.70065
11767.7,10.71698
11769.63,10.82797
11771.55,10.76933
11773.48,10.7246
11775.41,10.75408
11777.34,10.81351
11779.27,10.84804
11781.2,10.79651
11783.13,10.66144
11785.05,10.73679
11786.98,10.72513
11788.91,10.77767
11790.84,10.69049
11792.77,10.64677
11794.7,10.67095
11796.63,10.66601
11798.55,10.69172
11800.48,10.70715
11802.41,10.65641
11804.34,10.7052
11806.27,10.73465
11808.2,10.68956
11810.12,10.69868
11812.05,10.696
11813.98,10.76737
11815.91,10.8012
11817.84,10.7885
11819.77,10.77136
11821.7,10.74156
11823.62,10.67597
11825.55,10.75194
11827.48,10.78477
11829.41,10.70798
11831.34,10.80483
11833.27,10.81216
11835.19,10.7434
11837.12,10.76213
11839.05,10.82914
11840.98,10.89961
11842.91,10.79654
11844.84,10.76732
11846.77,10.80271
11848.69,10.88454
11850.62,10.84528
11852.55,10.87322
11854.48,10.81926
11856.41,10.75563
11858.34,10.71986
11860.27,10.77367
11862.19,10.8266
11864.12,10.80196
11866.05,10.678
11867.98,10.67952
11869.91,10.63589
11871.84,10.62998
11873.76,10.73604
11875.69,10.77951
11877.62,10.69327
11879.55,10.74017
11881.48,10.98884
11883.41,10.99383
11885.34,10.81946
11887.26,10.63169
11889.19,10.59092
11891.12,10.70682
11893.05,10.70458
11894.98,10.6765
11896.91,10.82508
11898.83,10.9261
11900.76,10.90294
11902.69,10.79947
11904.62,10.76729
11906.55,10.75375
11908.48,10.68321
11910.41,10.71582
11912.33,10.77661
11914.26,10.76399
11916.19,10.69085
11918.12,10.6603
11920.05,10.80408
11921.98,10.81569
11923.91,10.77539
11925.83,10.72942
11927.76,10.69541
11929.69,10.79857
11931.62,10.89725
11933.55,10.79846
11935.48,10.85371
11937.41,10.84579
11939.33,10.70211
11941.26,10.81397
11943.19,10.77443
11945.12,10.68902
11947.05,10.76894
11948.98,10.80804
11950.9,10.71802
11952.83,10.60773
11954.76,10.67757
11956.69,10.84635
11958.62,10.91444
11960.55,10.83787
11962.48,10.86658
11964.4,10.87925
11966.33,10.76504
11968.26,10.63341
11970.19,10.69345
11972.12,10.68227
11974.05,10.75385
11975.98,10.90723
11977.9,10.78025
11979.83,10.74537
11981.76,10.83402
11983.69,10.72015
11985.62,10.59618
11987.55,10.6609
11989.47,10.79149
11991.4,10.75057
11993.33,10.62996
11995.26,10.5858
11997.19,10.60984
11999.12,10.73682
