Wavenumber,Intensity
3999.706,3.21427
4001.634,3.217836
4003.563,3.21662
4005.491,3.217484
4007.42,3.221893
4009.348,3.220525
4011.277,3.217765
4013.205,3.222085
4015.134,3.223138
4017.062,3.228961
4018.991,3.230862
4020.919,3.227668
4022.848,3.226718
4024.776,3.232234
4026.705,3.236509
4028.633,3.237469
4030.562,3.234001
4032.49,3.234815
4034.419,3.238807
4036.347,3.239796
4038.276,3.238415
4040.204,3.239271
4042.133,3.240395
4044.061,3.247137
4045.99,3.247909
4047.918,3.246308
4049.847,3.247797
4051.775,3.249099
4053.704,3.250483
4055.632,3.248423
4057.561,3.247394
4059.489,3.246841
4061.418,3.250773
4063.346,3.254534
4065.275,3.257874
4067.203,3.257518
4069.132,3.255867
4071.06,3.255203
4072.989,3.253413
4074.917,3.260548
4076.846,3.26394
4078.774,3.261198
4080.703,3.261715
4082.631,3.263278
4084.56,3.266443
4086.488,3.267605
4088.417,3.27005
4090.345,3.268491
4092.274,3.266586
4094.202,3.269627
4096.131,3.269264
4098.059,3.268111
4099.988,3.268023
4101.916,3.269883
4103.845,3.273638
4105.773,3.273727
4107.702,3.270815
4109.63,3.270044
4111.559,3.273661
4113.487,3.27687
4115.416,3.278527
4117.344,3.278086
4119.273,3.276487
4121.201,3.281145
4123.13,3.28026
4125.058,3.281783
4126.987,3.279804
4128.915,3.279019
4130.844,3.279726
4132.772,3.279734
4134.701,3.280164
4136.629,3.28146
4138.558,3.283751
4140.486,3.281072
4142.415,3.281017
4144.343,3.282829
4146.271,3.284748
4148.2,3.285307
4150.129,3.284976
4152.057,3.288011
4153.986,3.288951
4155.914,3.288346
4157.843,3.288568
4159.771,3.288652
4161.7,3.29319
4163.628,3.292137
4165.557,3.289426
4167.485,3.293224
4169.414,3.296936
4171.342,3.298369
4173.271,3.299766
4175.199,3.30198
4177.127,3.305533
4179.056,3.304776
4180.985,3.302688
4182.913,3.307603
4184.842,3.311868
4186.77,3.311331
4188.699,3.310439
4190.627,3.311963
4192.556,3.317819
4194.484,3.321778
4196.413,3.322659
4198.341,3.325616
4200.27,3.328062
4202.198,3.332186
4204.126,3.332738
4206.055,3.334873
4207.983,3.339062
4209.912,3.342472
4211.841,3.344995
4213.769,3.346431
4215.698,3.351047
4217.626,3.350832
4219.555,3.354131
4221.483,3.356869
4223.412,3.357398
4225.34,3.360115
4227.269,3.362991
4229.197,3.36605
4231.125,3.366598
4233.054,3.368562
4234.982,3.369542
4236.911,3.369372
4238.84,3.368561
4240.768,3.370829
4242.697,3.372525
4244.625,3.373589
4246.554,3.373534
4248.482,3.374488
4250.411,3.376195
4252.339,3.377805
4254.268,3.38002
4256.196,3.383654
4258.125,3.384116
4260.053,3.38479
4261.981,3.384905
4263.91,3.390327
4265.838,3.392589
4267.767,3.390934
4269.696,3.392745
4271.624,3.396297
4273.553,3.395386
4275.481,3.395054
4277.41,3.394651
4279.338,3.395145
4281.267,3.396944
4283.195,3.397607
4285.124,3.397071
4287.052,3.399248
4288.98,3.404775
4290.909,3.408051
4292.837,3.407227
4294.766,3.408827
4296.694,3.410419
4298.623,3.40972
4300.552,3.408407
4302.48,3.409328
4304.409,3.406747
4306.337,3.405199
4308.266,3.407295
4310.194,3.40981
4312.123,3.408087
4314.051,3.40562
4315.979,3.405452
4317.908,3.408142
4319.836,3.406696
4321.765,3.405928
4323.693,3.404754
4325.622,3.40439
4327.551,3.402399
4329.479,3.403254
4331.408,3.407542
4333.336,3.408268
4335.265,3.409654
4337.193,3.410603
4339.122,3.40966
4341.05,3.411335
4342.979,3.410771
4344.907,3.410924
4346.835,3.415233
4348.764,3.418272
4350.692,3.416703
4352.621,3.414387
4354.549,3.417798
4356.478,3.417076
4358.407,3.417337
4360.335,3.417389
4362.264,3.417537
4364.192,3.420088
4366.121,3.41557
4368.049,3.41614
4369.978,3.415657
4371.906,3.416113
4373.834,3.418238
4375.763,3.416901
4377.691,3.416769
4379.62,3.416115
4381.548,3.420631
4383.477,3.421376
4385.405,3.418196
4387.334,3.421321
4389.263,3.423326
4391.191,3.42146
4393.12,3.423749
4395.048,3.424207
4396.977,3.419967
4398.905,3.419995
4400.833,3.422376
4402.762,3.424931
4404.69,3.427412
4406.619,3.429926
4408.547,3.428974
4410.476,3.428857
4412.404,3.431035
4414.333,3.434785
4416.262,3.435699
4418.19,3.439623
4420.119,3.441363
4422.047,3.443091
4423.976,3.450727
4425.904,3.461761
4427.833,3.464906
4429.761,3.465721
4431.689,3.46849
4433.618,3.475084
4435.546,3.483199
4437.475,3.491691
4439.403,3.498357
4441.332,3.505919
4443.26,3.513358
4445.189,3.51912
4447.117,3.527326
4449.046,3.5371
4450.975,3.547656
4452.903,3.555715
4454.832,3.564644
4456.76,3.57778
4458.688,3.587665
4460.617,3.597407
4462.545,3.607307
4464.474,3.615542
4466.402,3.62745
4468.331,3.636648
4470.259,3.646883
4472.188,3.658377
4474.116,3.667048
4476.045,3.678311
4477.974,3.690146
4479.902,3.702223
4481.831,3.711816
4483.759,3.72222
4485.688,3.731015
4487.616,3.740979
4489.544,3.750404
4491.473,3.761076
4493.401,3.77633
4495.33,3.790121
4497.258,3.800269
4499.187,3.80636
4501.115,3.819437
4503.044,3.835709
4504.972,3.849426
4506.901,3.859143
4508.83,3.869541
4510.758,3.883044
4512.687,3.900491
4514.615,3.91371
4516.543,3.924581
4518.472,3.938697
4520.4,3.952158
4522.329,3.967039
4524.257,3.981748
4526.186,3.994195
4528.114,4.007862
4530.043,4.021729
4531.971,4.034754
4533.9,4.047466
4535.828,4.064931
4537.757,4.081824
4539.686,4.096169
4541.614,4.109601
4543.542,4.130809
4545.471,4.148012
4547.399,4.162682
4549.328,4.177414
4551.256,4.191416
4553.185,4.209598
4555.113,4.227513
4557.042,4.242105
4558.97,4.257217
4560.899,4.275702
4562.827,4.293201
4564.756,4.308983
4566.685,4.321075
4568.613,4.334432
4570.542,4.345985
4572.47,4.359732
4574.398,4.376624
4576.327,4.389487
4578.255,4.401093
4580.184,4.409052
4582.112,4.419142
4584.041,4.431916
4585.969,4.442494
4587.898,4.450066
4589.826,4.460215
4591.755,4.470944
4593.683,4.479423
4595.612,4.484398
4597.54,4.493804
4599.469,4.50164
4601.397,4.510376
4603.326,4.51709
4605.254,4.525679
4607.183,4.532309
4609.111,4.536267
4611.04,4.543443
4612.968,4.547599
4614.897,4.553694
4616.825,4.564263
4618.754,4.571515
4620.682,4.579649
4622.611,4.58882
4624.539,4.597365
4626.468,4.606308
4628.396,4.612648
4630.325,4.613971
4632.253,4.617476
4634.182,4.621274
4636.11,4.623625
4638.039,4.627084
4639.967,4.632169
4641.896,4.633657
4643.824,4.635682
4645.753,4.635499
4647.681,4.632591
4649.61,4.632185
4651.538,4.62861
4653.467,4.622985
4655.396,4.619102
4657.324,4.610094
4659.252,4.596401
4661.181,4.582021
4663.109,4.571223
4665.038,4.563537
4666.966,4.562523
4668.895,4.568919
4670.823,4.579526
4672.752,4.592878
4674.68,4.609924
4676.609,4.63295
4678.537,4.646569
4680.466,4.659008
4682.394,4.672702
4684.323,4.684117
4686.251,4.69153
4688.18,4.698333
4690.108,4.705188
4692.037,4.710718
4693.965,4.712861
4695.894,4.712154
4697.822,4.71442
4699.751,4.715199
4701.679,4.716486
4703.608,4.717005
4705.536,4.718277
4707.465,4.716874
4709.393,4.716228
4711.322,4.712746
4713.25,4.703249
4715.179,4.699423
4717.107,4.698215
4719.036,4.691906
4720.964,4.683473
4722.893,4.673901
4724.821,4.667118
4726.75,4.659221
4728.678,4.651759
4730.606,4.645965
4732.535,4.640862
4734.464,4.639056
4736.392,4.635854
4738.321,4.63332
4740.249,4.632856
4742.178,4.627518
4744.106,4.621055
4746.035,4.616491
4747.963,4.612562
4749.892,4.610349
4751.82,4.606725
4753.749,4.599575
4755.677,4.593397
4757.605,4.59001
4759.534,4.583825
4761.463,4.57489
4763.391,4.568844
4765.32,4.560648
4767.248,4.550443
4769.177,4.541034
4771.105,4.529462
4773.034,4.519468
4774.962,4.508682
4776.891,4.502676
4778.819,4.495042
4780.748,4.490283
4782.676,4.485168
4784.604,4.480339
4786.533,4.479693
4788.462,4.477049
4790.39,4.471989
4792.319,4.467834
4794.247,4.465465
4796.176,4.462912
4798.104,4.460424
4800.033,4.454868
4801.961,4.447372
4803.89,4.438799
4805.818,4.430057
4807.747,4.423486
4809.675,4.415379
4811.604,4.405823
4813.532,4.394495
4815.46,4.386013
4817.389,4.377642
4819.317,4.366188
4821.246,4.354512
4823.175,4.346092
4825.103,4.340591
4827.032,4.332649
4828.96,4.320169
4830.889,4.314189
4832.817,4.309086
4834.746,4.302298
4836.674,4.295583
4838.603,4.285724
4840.531,4.271843
4842.459,4.257829
4844.388,4.246002
4846.316,4.236634
4848.245,4.22563
4850.174,4.211818
4852.102,4.198476
4854.031,4.19029
4855.959,4.180498
4857.888,4.16818
4859.816,4.159182
4861.745,4.151433
4863.673,4.147342
4865.602,4.142151
4867.53,4.136915
4869.458,4.135356
4871.387,4.136014
4873.315,4.139227
4875.244,4.141412
4877.172,4.144078
4879.101,4.145081
4881.03,4.145703
4882.958,4.148937
4884.887,4.15243
4886.815,4.157639
4888.744,4.161323
4890.672,4.16631
4892.601,4.170356
4894.529,4.171403
4896.458,4.174906
4898.386,4.176929
4900.314,4.18072
4902.243,4.184177
4904.171,4.185786
4906.1,4.186559
4908.028,4.18635
4909.957,4.186293
4911.886,4.186727
4913.814,4.189048
4915.743,4.190061
4917.671,4.187572
4919.6,4.1866
4921.528,4.188094
4923.457,4.188521
4925.385,4.184611
4927.313,4.18187
4929.242,4.182783
4931.17,4.183626
4933.099,4.182786
4935.027,4.184765
4936.956,4.184709
4938.885,4.182238
4940.813,4.176235
4942.742,4.170177
4944.67,4.163772
4946.599,4.156694
4948.527,4.146707
4950.456,4.134746
4952.384,4.122672
4954.313,4.106051
4956.241,4.081604
4958.169,4.057753
4960.098,4.040163
4962.026,4.027525
4963.955,4.019705
4965.883,4.018612
4967.812,4.021597
4969.74,4.029598
4971.669,4.038013
4973.598,4.041262
4975.526,4.04747
4977.455,4.04963
4979.383,4.054322
4981.312,4.062753
4983.24,4.068856
4985.168,4.074586
4987.097,4.081135
4989.025,4.091776
4990.954,4.101297
4992.882,4.110853
4994.811,4.120642
4996.739,4.132499
4998.668,4.144273
5000.597,4.156154
5002.525,4.166956
5004.454,4.173419
5006.382,4.180072
5008.311,4.186343
5010.239,4.186253
5012.167,4.185907
5014.096,4.187656
5016.024,4.191841
5017.953,4.191376
5019.881,4.192083
5021.81,4.196081
5023.738,4.202403
5025.667,4.208584
5027.596,4.21432
5029.524,4.216512
5031.452,4.220782
5033.381,4.224593
5035.31,4.225546
5037.238,4.225762
5039.167,4.226097
5041.095,4.227013
5043.023,4.229447
5044.952,4.231707
5046.88,4.230907
5048.809,4.229709
5050.737,4.225468
5052.666,4.221293
5054.595,4.218797
5056.523,4.214614
5058.451,4.209623
5060.38,4.205638
5062.309,4.200976
5064.237,4.198785
5066.166,4.201154
5068.094,4.202073
5070.022,4.202217
5071.951,4.202248
5073.879,4.201544
5075.808,4.200915
5077.736,4.20102
5079.665,4.201583
5081.593,4.19873
5083.522,4.196735
5085.45,4.193659
5087.379,4.18854
5089.308,4.187415
5091.236,4.187882
5093.165,4.186088
5095.093,4.181697
5097.021,4.179806
5098.95,4.180499
5100.878,4.182619
5102.807,4.184905
5104.735,4.189081
5106.664,4.190482
5108.592,4.191806
5110.521,4.195859
5112.449,4.199798
5114.378,4.198648
5116.307,4.198849
5118.235,4.201789
5120.163,4.206738
5122.092,4.207625
5124.021,4.208678
5125.949,4.214524
5127.877,4.220519
5129.806,4.222863
5131.734,4.224065
5133.663,4.223271
5135.591,4.221034
5137.52,4.218716
5139.448,4.216728
5141.377,4.216401
5143.305,4.211984
5145.234,4.206378
5147.162,4.199977
5149.091,4.194588
5151.02,4.193103
5152.948,4.190699
5154.876,4.187383
5156.805,4.188901
5158.733,4.187992
5160.662,4.183555
5162.59,4.182488
5164.519,4.183578
5166.447,4.183928
5168.376,4.187341
5170.304,4.188908
5172.233,4.187196
5174.161,4.181142
5176.09,4.17753
5178.019,4.177146
5179.947,4.177595
5181.875,4.176386
5183.804,4.176456
5185.732,4.177772
5187.661,4.175604
5189.589,4.175632
5191.518,4.17185
5193.446,4.173912
5195.375,4.177907
5197.303,4.182084
5199.232,4.177084
5201.16,4.178934
5203.089,4.181952
5205.018,4.184514
5206.946,4.187944
5208.874,4.185863
5210.803,4.182693
5212.731,4.178769
5214.66,4.176736
5216.588,4.177409
5218.517,4.181166
5220.445,4.178566
5222.374,4.18049
5224.302,4.187372
5226.231,4.191081
5228.159,4.186206
5230.088,4.187786
5232.016,4.193925
5233.945,4.192739
5235.873,4.19172
5237.802,4.194991
5239.73,4.19692
5241.659,4.197232
5243.587,4.205849
5245.516,4.208824
5247.444,4.209117
5249.373,4.210642
5251.301,4.205142
5253.229,4.206029
5255.158,4.20769
5257.087,4.206186
5259.015,4.205149
5260.944,4.209374
5262.872,4.21289
5264.801,4.214802
5266.729,4.211895
5268.658,4.209723
5270.586,4.206281
5272.515,4.20311
5274.443,4.20208
5276.372,4.201942
5278.3,4.204066
5280.229,4.205065
5282.157,4.205807
5284.086,4.210101
5286.014,4.210544
5287.943,4.206817
5289.871,4.213606
5291.8,4.210819
5293.729,4.20746
5295.657,4.204413
5297.585,4.201383
5299.514,4.198437
5301.442,4.191853
5303.371,4.186935
5305.299,4.185904
5307.228,4.187484
5309.156,4.181662
5311.085,4.181147
5313.013,4.187386
5314.941,4.194852
5316.87,4.204807
5318.799,4.20998
5320.727,4.219145
5322.656,4.229146
5324.584,4.232679
5326.513,4.238914
5328.441,4.242736
5330.37,4.239046
5332.298,4.237576
5334.227,4.227419
5336.155,4.226362
5338.084,4.226563
5340.012,4.215938
5341.94,4.200655
5343.869,4.195968
5345.798,4.189746
5347.726,4.175069
5349.655,4.161585
5351.583,4.152676
5353.512,4.149292
5355.44,4.137898
5357.369,4.124596
5359.297,4.113567
5361.226,4.106106
5363.154,4.098566
5365.083,4.088636
5367.011,4.079542
5368.939,4.072275
5370.868,4.065066
5372.797,4.059715
5374.725,4.053092
5376.654,4.048821
5378.582,4.04413
5380.511,4.035188
5382.439,4.031303
5384.368,4.025267
5386.296,4.026736
5388.225,4.017321
5390.153,4.007636
5392.082,3.999482
5394.01,3.998021
5395.938,3.989467
5397.867,3.981734
5399.796,3.969155
5401.724,3.960619
5403.652,3.952636
5405.581,3.944379
5407.51,3.933994
5409.438,3.927917
5411.367,3.917268
5413.295,3.906104
5415.224,3.896043
5417.152,3.88181
5419.081,3.873722
5421.009,3.868249
5422.938,3.864913
5424.866,3.859904
5426.795,3.856973
5428.723,3.855897
5430.651,3.857338
5432.58,3.847497
5434.509,3.844995
5436.437,3.842897
5438.366,3.832434
5440.294,3.834614
5442.223,3.842925
5444.151,3.836835
5446.08,3.833518
5448.008,3.827949
5449.937,3.828152
5451.865,3.824224
5453.793,3.816988
5455.722,3.816889
5457.65,3.81894
5459.579,3.814772
5461.508,3.81565
5463.436,3.815389
5465.365,3.806867
5467.293,3.804412
5469.222,3.805384
5471.15,3.799882
5473.079,3.793691
5475.007,3.796016
5476.936,3.78983
5478.864,3.780967
5480.792,3.778634
5482.721,3.771855
5484.649,3.77031
5486.578,3.767324
5488.507,3.766253
5490.435,3.764735
5492.363,3.76777
5494.292,3.767443
5496.221,3.762309
5498.149,3.764856
5500.078,3.766649
5502.006,3.765445
5503.935,3.768666
5505.863,3.771027
5507.792,3.771456
5509.72,3.768861
5511.648,3.772353
5513.577,3.775697
5515.505,3.776505
5517.434,3.774529
5519.362,3.773749
5521.291,3.779358
5523.22,3.7816
5525.148,3.776694
5527.077,3.776178
5529.005,3.773538
5530.934,3.77131
5532.862,3.774921
5534.791,3.776111
5536.719,3.776394
5538.647,3.775349
5540.576,3.772668
5542.504,3.770139
5544.433,3.768492
5546.361,3.768244
5548.29,3.768659
5550.219,3.767441
5552.147,3.770082
5554.076,3.770755
5556.004,3.768096
5557.933,3.768831
5559.861,3.772495
5561.79,3.775207
5563.718,3.778458
5565.646,3.784034
5567.575,3.785125
5569.503,3.789431
5571.432,3.795491
5573.36,3.800266
5575.289,3.805236
5577.218,3.813327
5579.146,3.818343
5581.074,3.822862
5583.003,3.827105
5584.932,3.830818
5586.86,3.832994
5588.789,3.835391
5590.717,3.834471
5592.646,3.831884
5594.574,3.827832
5596.502,3.827636
5598.431,3.826457
5600.359,3.821589
5602.288,3.816746
5604.216,3.811957
5606.145,3.805961
5608.073,3.797943
5610.002,3.789378
5611.931,3.782828
5613.859,3.779802
5615.788,3.775596
5617.716,3.768122
5619.645,3.762423
5621.573,3.760344
5623.501,3.752672
5625.43,3.745592
5627.358,3.743054
5629.287,3.737781
5631.215,3.733263
5633.144,3.730233
5635.072,3.72474
5637.001,3.720441
5638.93,3.71467
5640.858,3.70691
5642.786,3.699989
5644.715,3.691431
5646.644,3.684927
5648.572,3.676109
5650.5,3.670418
5652.429,3.663512
5654.357,3.652388
5656.286,3.651193
5658.214,3.651428
5660.143,3.647628
5662.071,3.646659
5664.0,3.646976
5665.929,3.647937
5667.857,3.649647
5669.785,3.651576
5671.714,3.653651
5673.643,3.654574
5675.571,3.655999
5677.5,3.660228
5679.428,3.662633
5681.356,3.665446
5683.285,3.665833
5685.213,3.665724
5687.142,3.670647
5689.07,3.676433
5690.999,3.682475
5692.927,3.687054
5694.856,3.691931
5696.784,3.697551
5698.713,3.704103
5700.642,3.708781
5702.57,3.713507
5704.499,3.718881
5706.427,3.725855
5708.355,3.733785
5710.284,3.737936
5712.212,3.741116
5714.141,3.747299
5716.069,3.745178
5717.998,3.74344
5719.926,3.742226
5721.855,3.734179
5723.783,3.726978
5725.712,3.718158
5727.641,3.703944
5729.569,3.694386
5731.497,3.690457
5733.426,3.68611
5735.354,3.685951
5737.283,3.68355
5739.211,3.682011
5741.14,3.679247
5743.068,3.674778
5744.997,3.668423
5746.925,3.664664
5748.854,3.661418
5750.782,3.657558
5752.711,3.654183
5754.639,3.650658
5756.568,3.650356
5758.496,3.649197
5760.425,3.648128
5762.354,3.647839
5764.282,3.648224
5766.21,3.646177
5768.139,3.643429
5770.067,3.64222
5771.996,3.638654
5773.924,3.639807
5775.853,3.642579
5777.781,3.643023
5779.71,3.644956
5781.638,3.642563
5783.567,3.640846
5785.495,3.644849
5787.424,3.649415
5789.353,3.648653
5791.281,3.647168
5793.209,3.644817
5795.138,3.645309
5797.066,3.648449
5798.995,3.649279
5800.923,3.648771
5802.852,3.651839
5804.78,3.650235
5806.709,3.652547
5808.637,3.65523
5810.566,3.653949
5812.494,3.656617
5814.423,3.660975
5816.352,3.661505
5818.28,3.662904
5820.208,3.66706
5822.137,3.667902
5824.065,3.66875
5825.994,3.67034
5827.922,3.673214
5829.851,3.675179
5831.779,3.680542
5833.708,3.682194
5835.636,3.686825
5837.565,3.692522
5839.493,3.695622
5841.422,3.700106
5843.35,3.70707
5845.279,3.714199
5847.207,3.720362
5849.136,3.730191
5851.064,3.745459
5852.993,3.761024
5854.921,3.77423
5856.85,3.786869
5858.778,3.806369
5860.707,3.830051
5862.635,3.852679
5864.563,3.879413
5866.492,3.910412
5868.421,3.94278
5870.349,3.979246
5872.278,4.018253
5874.206,4.060656
5876.135,4.108358
5878.063,4.156921
5879.992,4.203884
5881.92,4.255672
5883.849,4.306707
5885.777,4.356564
5887.706,4.408211
5889.634,4.453161
5891.563,4.49438
5893.491,4.527386
5895.42,4.56182
5897.348,4.59539
5899.277,4.621832
5901.205,4.648249
5903.134,4.677554
5905.063,4.711123
5906.991,4.747951
5908.919,4.792157
5910.848,4.842822
5912.776,4.893216
5914.705,4.957136
5916.633,5.024362
5918.562,5.093831
5920.49,5.170646
5922.419,5.248927
5924.347,5.331699
5926.276,5.416677
5928.204,5.502723
5930.133,5.582938
5932.061,5.662755
5933.99,5.73798
5935.918,5.813582
5937.847,5.884846
5939.775,5.95414
5941.704,6.021419
5943.632,6.082189
5945.561,6.13908
5947.489,6.201834
5949.418,6.257253
5951.346,6.311299
5953.274,6.367929
5955.203,6.423698
5957.132,6.481029
5959.06,6.541977
5960.989,6.600347
5962.917,6.658155
5964.846,6.716828
5966.774,6.779803
5968.703,6.837274
5970.631,6.891837
5972.56,6.946881
5974.488,7.003965
5976.417,7.05628
5978.345,7.108242
5980.273,7.158361
5982.202,7.206961
5984.131,7.253251
5986.059,7.298169
5987.988,7.341499
5989.916,7.389599
5991.845,7.435793
5993.773,7.477695
5995.702,7.522495
5997.63,7.56389
5999.559,7.600366
6001.487,7.640917
6003.416,7.682861
6005.344,7.722514
6007.272,7.759591
6009.201,7.797595
6011.13,7.835228
6013.058,7.874719
6014.986,7.913595
6016.915,7.951241
6018.844,7.984759
6020.772,8.016336
6022.701,8.053185
6024.629,8.088658
6026.558,8.116968
6028.486,8.147871
6030.415,8.178077
6032.343,8.206581
6034.271,8.232381
6036.2,8.263433
6038.129,8.290197
6040.057,8.315804
6041.985,8.339492
6043.914,8.368449
6045.843,8.389892
6047.771,8.411971
6049.7,8.435781
6051.628,8.462266
6053.557,8.484781
6055.485,8.50883
6057.414,8.527478
6059.342,8.547897
6061.271,8.566482
6063.199,8.58998
6065.128,8.606477
6067.056,8.619571
6068.984,8.638825
6070.913,8.661276
6072.842,8.674411
6074.77,8.689979
6076.698,8.703853
6078.627,8.719121
6080.556,8.734439
6082.484,8.751462
6084.413,8.763439
6086.341,8.776855
6088.27,8.786484
6090.198,8.796548
6092.126,8.80831
6094.055,8.818249
6095.983,8.825127
6097.912,8.836648
6099.841,8.843675
6101.769,8.85266
6103.697,8.861115
6105.626,8.874322
6107.555,8.884611
6109.483,8.895252
6111.412,8.903615
6113.34,8.913824
6115.269,8.923412
6117.197,8.933508
6119.125,8.946324
6121.054,8.962015
6122.982,8.971972
6124.911,8.987435
6126.84,9.006832
6128.768,9.024976
6130.696,9.039151
6132.625,9.053829
6134.554,9.067452
6136.482,9.08461
6138.41,9.100444
6140.339,9.119746
6142.268,9.135179
6144.196,9.155377
6146.125,9.170515
6148.053,9.182333
6149.981,9.196188
6151.91,9.215121
6153.839,9.230716
6155.767,9.246163
6157.695,9.263134
6159.624,9.279916
6161.553,9.292872
6163.481,9.308537
6165.409,9.31988
6167.338,9.337816
6169.267,9.356149
6171.195,9.373397
6173.124,9.387573
6175.052,9.40543
6176.98,9.418535
6178.909,9.431906
6180.837,9.440761
6182.766,9.452486
6184.694,9.466232
6186.623,9.47774
6188.552,9.484306
6190.48,9.494562
6192.408,9.503716
6194.337,9.513746
6196.266,9.522999
6198.194,9.535395
6200.123,9.54235
6202.051,9.553326
6203.979,9.561455
6205.908,9.569694
6207.836,9.578481
6209.765,9.588195
6211.693,9.594733
6213.622,9.600763
6215.551,9.606836
6217.479,9.617214
6219.407,9.623284
6221.336,9.626042
6223.265,9.636377
6225.193,9.643892
6227.121,9.64656
6229.05,9.654146
6230.979,9.658071
6232.907,9.664904
6234.835,9.672565
6236.764,9.678123
6238.692,9.68111
6240.621,9.684806
6242.549,9.684526
6244.478,9.687467
6246.406,9.688505
6248.335,9.694677
6250.264,9.696068
6252.192,9.698621
6254.12,9.704268
6256.049,9.706543
6257.978,9.707847
6259.906,9.711884
6261.834,9.713781
6263.763,9.717763
6265.691,9.71997
6267.62,9.718388
6269.548,9.721874
6271.477,9.727058
6273.405,9.730671
6275.334,9.737302
6277.263,9.737671
6279.191,9.73986
6281.119,9.741339
6283.048,9.741107
6284.977,9.741194
6286.905,9.745146
6288.833,9.745774
6290.762,9.745233
6292.69,9.749183
6294.619,9.749855
6296.547,9.746812
6298.476,9.751853
6300.404,9.755451
6302.333,9.759919
6304.262,9.757499
6306.19,9.76074
6308.118,9.76298
6310.047,9.762255
6311.976,9.760134
6313.904,9.760344
6315.832,9.761709
6317.761,9.760452
6319.689,9.757037
6321.618,9.755603
6323.546,9.75193
6325.475,9.746321
6327.403,9.741579
6329.332,9.739687
6331.26,9.734172
6333.189,9.729608
6335.117,9.726332
6337.046,9.720956
6338.975,9.715694
6340.903,9.716063
6342.831,9.706802
6344.76,9.698502
6346.688,9.692322
6348.617,9.686077
6350.545,9.67738
6352.474,9.666101
6354.402,9.65499
6356.331,9.650098
6358.259,9.640156
6360.188,9.631507
6362.116,9.626227
6364.045,9.615619
6365.974,9.599521
6367.902,9.58158
6369.83,9.566953
6371.759,9.551262
6373.688,9.536123
6375.616,9.52281
6377.544,9.511486
6379.473,9.504308
6381.401,9.495393
6383.33,9.494369
6385.258,9.486582
6387.187,9.478132
6389.115,9.471756
6391.044,9.467589
6392.973,9.464834
6394.901,9.459268
6396.829,9.450727
6398.758,9.440889
6400.687,9.426711
6402.615,9.413455
6404.543,9.393351
6406.472,9.374168
6408.4,9.352539
6410.329,9.332654
6412.257,9.313872
6414.186,9.296134
6416.114,9.277666
6418.043,9.261857
6419.971,9.24969
6421.9,9.240019
6423.828,9.232419
6425.757,9.228671
6427.686,9.216631
6429.614,9.202804
6431.542,9.194795
6433.471,9.188384
6435.399,9.173099
6437.328,9.159402
6439.256,9.140268
6441.185,9.119521
6443.113,9.098181
6445.042,9.073923
6446.97,9.046466
6448.898,9.020899
6450.827,8.996831
6452.756,8.963279
6454.685,8.931483
6456.613,8.901219
6458.541,8.862133
6460.47,8.817281
6462.398,8.764103
6464.327,8.710348
6466.255,8.646713
6468.184,8.568597
6470.112,8.486435
6472.041,8.403456
6473.969,8.316151
6475.897,8.238927
6477.826,8.17342
6479.755,8.119299
6481.684,8.089074
6483.612,8.079263
6485.54,8.083941
6487.469,8.094672
6489.397,8.113529
6491.326,8.135531
6493.254,8.160153
6495.183,8.185888
6497.111,8.209911
6499.04,8.235661
6500.968,8.259205
6502.896,8.281602
6504.825,8.302162
6506.754,8.323798
6508.682,8.345348
6510.61,8.3667
6512.539,8.382817
6514.468,8.396935
6516.396,8.405697
6518.325,8.417523
6520.253,8.431736
6522.182,8.447713
6524.11,8.457344
6526.039,8.46806
6527.967,8.480755
6529.896,8.489493
6531.824,8.496852
6533.753,8.504903
6535.681,8.513104
6537.609,8.522795
6539.538,8.525822
6541.467,8.53329
6543.396,8.536525
6545.324,8.542156
6547.252,8.551395
6549.181,8.561218
6551.109,8.563013
6553.038,8.564327
6554.966,8.5684
6556.895,8.576069
6558.823,8.58355
6560.752,8.583412
6562.68,8.590993
6564.608,8.605143
6566.537,8.613264
6568.466,8.618303
6570.394,8.625956
6572.323,8.639074
6574.251,8.647958
6576.18,8.651728
6578.108,8.66081
6580.037,8.670993
6581.965,8.670825
6583.894,8.672379
6585.822,8.673798
6587.751,8.679039
6589.679,8.68294
6591.607,8.683072
6593.536,8.687398
6595.465,8.688357
6597.393,8.68506
6599.321,8.685194
6601.25,8.686558
6603.179,8.686362
6605.107,8.685033
6607.036,8.681246
6608.964,8.680761
6610.893,8.683313
6612.821,8.676875
6614.75,8.674457
6616.678,8.670966
6618.606,8.666466
6620.535,8.664266
6622.464,8.661449
6624.392,8.653698
6626.32,8.651303
6628.249,8.647661
6630.178,8.638507
6632.106,8.634849
6634.035,8.627847
6635.963,8.622843
6637.892,8.619174
6639.82,8.612
6641.749,8.606867
6643.677,8.593051
6645.605,8.584039
6647.534,8.578626
6649.463,8.572705
6651.391,8.561919
6653.319,8.550264
6655.248,8.539815
6657.177,8.536049
6659.105,8.5291
6661.034,8.515952
6662.962,8.500442
6664.891,8.483186
6666.819,8.469982
6668.748,8.46672
6670.676,8.460899
6672.604,8.454049
6674.533,8.438494
6676.462,8.42602
6678.39,8.412335
6680.318,8.399038
6682.247,8.388379
6684.176,8.375884
6686.104,8.36106
6688.032,8.346295
6689.961,8.32891
6691.89,8.31364
6693.818,8.298027
6695.747,8.284081
6697.675,8.268808
6699.604,8.253618
6701.532,8.239247
6703.46,8.224196
6705.389,8.204513
6707.317,8.189807
6709.246,8.171116
6711.175,8.153679
6713.103,8.138005
6715.031,8.12071
6716.96,8.100063
6718.889,8.081198
6720.817,8.070129
6722.746,8.05521
6724.674,8.034698
6726.603,8.016919
6728.531,8.000057
6730.459,7.982029
6732.388,7.961462
6734.316,7.95153
6736.245,7.93788
6738.174,7.917131
6740.102,7.903118
6742.03,7.88948
6743.959,7.866766
6745.888,7.85075
6747.816,7.833758
6749.745,7.817107
6751.673,7.803138
6753.602,7.790059
6755.53,7.764946
6757.458,7.745963
6759.387,7.733798
6761.315,7.721434
6763.244,7.704787
6765.173,7.68699
6767.101,7.665926
6769.029,7.647738
6770.958,7.623837
6772.887,7.602301
6774.815,7.582853
6776.743,7.558612
6778.672,7.531351
6780.601,7.505246
6782.529,7.475396
6784.458,7.448671
6786.386,7.423165
6788.314,7.395557
6790.243,7.364655
6792.171,7.332883
6794.1,7.304107
6796.028,7.273743
6797.957,7.243716
6799.886,7.213783
6801.814,7.178929
6803.742,7.152331
6805.671,7.120846
6807.6,7.090909
6809.528,7.06089
6811.457,7.034899
6813.385,7.005088
6815.313,6.973595
6817.242,6.939709
6819.17,6.91107
6821.099,6.882237
6823.027,6.851207
6824.956,6.815803
6826.885,6.783975
6828.813,6.754889
6830.741,6.723914
6832.67,6.696312
6834.599,6.671926
6836.527,6.652745
6838.455,6.634068
6840.384,6.613929
6842.313,6.605043
6844.241,6.587383
6846.169,6.569247
6848.098,6.558312
6850.026,6.545079
6851.955,6.530295
6853.884,6.515628
6855.812,6.497275
6857.74,6.475989
6859.669,6.463012
6861.598,6.449869
6863.526,6.433751
6865.454,6.415211
6867.383,6.397958
6869.312,6.37288
6871.24,6.356946
6873.168,6.342571
6875.097,6.323167
6877.025,6.302053
6878.954,6.277222
6880.882,6.25949
6882.811,6.237967
6884.739,6.210834
6886.668,6.18694
6888.597,6.167299
6890.525,6.14322
6892.453,6.116233
6894.382,6.094038
6896.311,6.075397
6898.239,6.055556
6900.167,6.036693
6902.096,6.019992
6904.024,6.002193
6905.953,5.986087
6907.881,5.972422
6909.81,5.959985
6911.738,5.944613
6913.667,5.926451
6915.596,5.906083
6917.524,5.889778
6919.452,5.872255
6921.381,5.848801
6923.31,5.825943
6925.238,5.803868
6927.166,5.778907
6929.095,5.752084
6931.023,5.729092
6932.952,5.70072
6934.88,5.669075
6936.809,5.634402
6938.737,5.606904
6940.666,5.583427
6942.594,5.551043
6944.523,5.522906
6946.451,5.504735
6948.38,5.486973
6950.309,5.473531
6952.237,5.465465
6954.165,5.462646
6956.094,5.450805
6958.022,5.444838
6959.951,5.442472
6961.879,5.442904
6963.808,5.441841
6965.736,5.437043
6967.665,5.435915
6969.593,5.435555
6971.521,5.438676
6973.45,5.4383
6975.379,5.432206
6977.308,5.430294
6979.236,5.43304
6981.164,5.429231
6983.093,5.413835
6985.021,5.410163
6986.95,5.4109
6988.878,5.406493
6990.807,5.39996
6992.735,5.389727
6994.664,5.37919
6996.592,5.368382
6998.521,5.354529
7000.449,5.346686
7002.378,5.342939
7004.307,5.327225
7006.235,5.310184
7008.163,5.295954
7010.092,5.278456
7012.021,5.262141
7013.949,5.249927
7015.877,5.236004
7017.806,5.224694
7019.734,5.223665
7021.663,5.216419
7023.591,5.205205
7025.52,5.200409
7027.448,5.197374
7029.377,5.200743
7031.305,5.208578
7033.234,5.212523
7035.162,5.212311
7037.091,5.210853
7039.02,5.212973
7040.948,5.209865
7042.876,5.207056
7044.805,5.197241
7046.733,5.177454
7048.662,5.148681
7050.59,5.120189
7052.519,5.093392
7054.447,5.064771
7056.376,5.033844
7058.304,5.000237
7060.232,4.976871
7062.161,4.966071
7064.09,4.96349
7066.019,4.974257
7067.947,4.989097
7069.875,5.017344
7071.804,5.053132
7073.732,5.091683
7075.661,5.130965
7077.589,5.171561
7079.518,5.214148
7081.446,5.250374
7083.375,5.28082
7085.303,5.309519
7087.231,5.331083
7089.16,5.350961
7091.089,5.37224
7093.018,5.398608
7094.946,5.425148
7096.874,5.451428
7098.803,5.469628
7100.731,5.488282
7102.66,5.515481
7104.588,5.551475
7106.517,5.585396
7108.445,5.614069
7110.374,5.644879
7112.302,5.678195
7114.23,5.710553
7116.159,5.739957
7118.088,5.770667
7120.016,5.793814
7121.944,5.817127
7123.873,5.836196
7125.802,5.848416
7127.73,5.852894
7129.659,5.858524
7131.587,5.857552
7133.516,5.853961
7135.444,5.842607
7137.373,5.824358
7139.301,5.804364
7141.229,5.775656
7143.158,5.75081
7145.087,5.719319
7147.015,5.678969
7148.943,5.631446
7150.872,5.573322
7152.801,5.51052
7154.729,5.439874
7156.658,5.35053
7158.586,5.257163
7160.515,5.158656
7162.443,5.042412
7164.372,4.925257
7166.3,4.821905
7168.229,4.746546
7170.157,4.692567
7172.086,4.665679
7174.014,4.665384
7175.942,4.686438
7177.871,4.725052
7179.8,4.777034
7181.729,4.850525
7183.657,4.915637
7185.585,4.983007
7187.514,5.049226
7189.442,5.121593
7191.371,5.187037
7193.299,5.259133
7195.228,5.331964
7197.156,5.40242
7199.085,5.471045
7201.013,5.548476
7202.941,5.620922
7204.87,5.695989
7206.799,5.763521
7208.727,5.832793
7210.655,5.897572
7212.584,5.963972
7214.513,6.029256
7216.441,6.093482
7218.37,6.155807
7220.298,6.224706
7222.227,6.287135
7224.155,6.355018
7226.083,6.425809
7228.012,6.489305
7229.94,6.562241
7231.869,6.6415
7233.798,6.68987
7235.726,6.744467
7237.654,6.79791
7239.583,6.861338
7241.512,6.927853
7243.44,6.984113
7245.369,7.037577
7247.297,7.096997
7249.226,7.146846
7251.154,7.216092
7253.083,7.279486
7255.011,7.331962
7256.939,7.387998
7258.868,7.447004
7260.797,7.510754
7262.725,7.570063
7264.653,7.622603
7266.582,7.686464
7268.511,7.744844
7270.439,7.797405
7272.368,7.860957
7274.296,7.92489
7276.225,7.98314
7278.153,8.042849
7280.082,8.10109
7282.01,8.157025
7283.938,8.213958
7285.867,8.279462
7287.796,8.337135
7289.724,8.387013
7291.652,8.44471
7293.581,8.498599
7295.51,8.544924
7297.438,8.609172
7299.366,8.663419
7301.295,8.711877
7303.224,8.766725
7305.152,8.833911
7307.081,8.884389
7309.009,8.945504
7310.938,9.003738
7312.866,9.047592
7314.794,9.099946
7316.723,9.145992
7318.651,9.189908
7320.58,9.242767
7322.509,9.296093
7324.437,9.327425
7326.365,9.376204
7328.294,9.397011
7330.223,9.425946
7332.151,9.449509
7334.08,9.478957
7336.008,9.505508
7337.937,9.545111
7339.865,9.566351
7341.793,9.582294
7343.722,9.606733
7345.65,9.623805
7347.579,9.644879
7349.508,9.656813
7351.436,9.691955
7353.364,9.731688
7355.293,9.75925
7357.222,9.778926
7359.15,9.815846
7361.079,9.839565
7363.007,9.874104
7364.936,9.9107
7366.864,9.949457
7368.792,9.973423
7370.721,9.999119
7372.649,10.03829
7374.578,10.07608
7376.507,10.09594
7378.435,10.13365
7380.363,10.16357
7382.292,10.18743
7384.221,10.21333
7386.149,10.23425
7388.077,10.25151
7390.006,10.27402
7391.935,10.2964
7393.863,10.31351
7395.792,10.32812
7397.72,10.35332
7399.648,10.36178
7401.577,10.37473
7403.505,10.39727
7405.434,10.40857
7407.362,10.41299
7409.291,10.42905
7411.22,10.43758
7413.148,10.44667
7415.076,10.45616
7417.005,10.46582
7418.934,10.47122
7420.862,10.47592
7422.791,10.4818
7424.719,10.4972
7426.647,10.507
7428.576,10.51394
7430.504,10.51902
7432.433,10.5146
7434.361,10.51285
7436.29,10.52873
7438.219,10.53685
7440.147,10.53942
7442.075,10.53995
7444.004,10.53996
7445.933,10.54567
7447.861,10.55626
7449.789,10.56293
7451.718,10.56683
7453.646,10.56606
7455.575,10.57149
7457.503,10.57875
7459.432,10.58266
7461.36,10.58486
7463.289,10.58959
7465.218,10.58879
7467.146,10.58766
7469.074,10.59364
7471.003,10.59598
7472.932,10.59494
7474.86,10.59819
7476.788,10.59949
7478.717,10.59853
7480.646,10.59791
7482.574,10.60505
7484.502,10.60247
7486.431,10.60319
7488.359,10.6027
7490.288,10.59994
7492.216,10.59824
7494.145,10.59965
7496.073,10.60518
7498.002,10.60201
7499.931,10.59629
7501.859,10.59226
7503.787,10.59278
7505.716,10.59362
7507.645,10.58686
7509.573,10.58247
7511.501,10.57975
7513.43,10.59026
7515.358,10.58909
7517.287,10.58295
7519.215,10.57705
7521.144,10.57707
7523.072,10.57732
7525.001,10.57656
7526.93,10.56775
7528.858,10.57071
7530.786,10.57272
7532.715,10.56659
7534.644,10.56162
7536.572,10.55619
7538.5,10.55152
7540.429,10.55116
7542.357,10.54592
7544.286,10.53903
7546.214,10.5361
7548.143,10.53429
7550.071,10.53254
7552.0,10.52864
7553.928,10.52616
7555.857,10.52574
7557.785,10.51618
7559.714,10.50648
7561.643,10.50546
7563.571,10.50829
7565.499,10.5014
7567.428,10.49294
7569.356,10.48548
7571.285,10.48282
7573.213,10.48581
7575.142,10.48215
7577.07,10.47134
7578.999,10.46704
7580.927,10.46407
7582.855,10.46139
7584.784,10.45419
7586.713,10.44982
7588.642,10.44526
7590.57,10.43452
7592.498,10.42602
7594.427,10.4232
7596.355,10.4123
7598.284,10.40663
7600.212,10.40302
7602.141,10.39617
7604.069,10.38708
7605.998,10.38246
7607.926,10.37721
7609.854,10.36951
7611.783,10.36056
7613.712,10.35028
7615.641,10.34439
7617.569,10.3384
7619.497,10.32834
7621.426,10.31798
7623.354,10.31186
7625.283,10.30733
7627.211,10.29464
7629.14,10.27986
7631.068,10.27275
7632.997,10.26594
7634.925,10.26121
7636.854,10.24844
7638.782,10.23106
7640.711,10.22185
7642.639,10.21583
7644.568,10.21176
7646.496,10.20557
7648.425,10.19346
7650.354,10.18419
7652.282,10.17984
7654.21,10.16749
7656.139,10.16147
7658.067,10.15951
7659.996,10.15642
7661.924,10.13853
7663.853,10.12676
7665.781,10.12631
7667.71,10.11976
7669.638,10.10664
7671.566,10.09699
7673.495,10.09865
7675.424,10.09277
7677.353,10.08031
7679.281,10.07501
7681.209,10.07391
7683.138,10.06717
7685.066,10.05444
7686.995,10.04584
7688.923,10.04637
7690.852,10.04574
7692.78,10.04273
7694.709,10.03536
7696.637,10.03045
7698.565,10.02243
7700.494,10.01783
7702.423,10.00879
7704.352,10.00161
7706.28,9.997928
7708.208,9.991708
7710.137,9.988162
7712.065,9.979377
7713.994,9.969987
7715.922,9.957958
7717.851,9.953143
7719.779,9.952065
7721.708,9.947499
7723.636,9.943515
7725.564,9.941583
7727.493,9.926296
7729.422,9.914531
7731.35,9.90972
7733.279,9.9071
7735.207,9.901578
7737.136,9.893903
7739.064,9.884097
7740.993,9.877772
7742.921,9.878995
7744.85,9.884492
7746.778,9.875084
7748.707,9.85632
7750.635,9.846708
7752.563,9.842805
7754.492,9.831381
7756.421,9.831255
7758.349,9.824741
7760.277,9.813346
7762.206,9.799201
7764.135,9.787767
7766.063,9.780893
7767.992,9.774891
7769.92,9.772694
7771.849,9.770379
7773.777,9.764683
7775.706,9.753678
7777.634,9.745254
7779.563,9.740831
7781.491,9.736259
7783.42,9.737167
7785.348,9.728082
7787.276,9.716291
7789.205,9.707901
7791.134,9.705825
7793.063,9.701524
7794.991,9.697884
7796.919,9.689034
7798.848,9.68116
7800.776,9.679905
7802.705,9.669682
7804.633,9.657465
7806.562,9.647833
7808.49,9.644399
7810.419,9.641363
7812.347,9.627571
7814.275,9.619452
7816.204,9.609696
7818.133,9.604119
7820.061,9.595806
7821.989,9.589021
7823.918,9.581595
7825.847,9.568172
7827.775,9.551599
7829.704,9.548643
7831.632,9.544574
7833.561,9.540875
7835.489,9.530558
7837.417,9.51441
7839.346,9.501606
7841.274,9.502951
7843.203,9.493014
7845.132,9.476386
7847.06,9.465959
7848.988,9.461156
7850.917,9.451788
7852.846,9.439504
7854.774,9.424844
7856.703,9.40399
7858.631,9.394365
7860.56,9.389313
7862.488,9.371218
7864.417,9.351537
7866.345,9.345886
7868.273,9.339249
7870.202,9.323057
7872.131,9.3084
7874.059,9.295607
7875.987,9.277305
7877.916,9.273766
7879.845,9.260952
7881.773,9.237508
7883.702,9.220128
7885.63,9.210914
7887.559,9.202928
7889.487,9.186352
7891.416,9.169307
7893.344,9.150018
7895.272,9.135881
7897.201,9.128572
7899.13,9.137915
7901.058,9.101693
7902.986,9.074223
7904.915,9.060964
7906.844,9.04144
7908.772,9.026983
7910.7,9.007724
7912.629,8.992534
7914.558,8.974253
7916.486,8.9514
7918.415,8.932212
7920.343,8.920946
7922.271,8.90783
7924.2,8.893085
7926.128,8.875576
7928.057,8.84922
7929.985,8.827471
7931.914,8.812191
7933.843,8.795985
7935.771,8.778984
7937.699,8.75287
7939.628,8.731593
7941.557,8.707467
7943.485,8.687524
7945.414,8.669054
7947.342,8.64356
7949.271,8.620529
7951.199,8.603769
7953.127,8.579625
7955.056,8.55601
7956.984,8.534002
7958.913,8.509609
7960.842,8.486853
7962.77,8.464973
7964.698,8.448002
7966.627,8.425206
7968.556,8.396625
7970.484,8.36615
7972.413,8.341895
7974.341,8.326821
7976.27,8.301266
7978.198,8.269274
7980.126,8.249105
7982.055,8.228896
7983.983,8.203725
7985.912,8.17872
7987.841,8.15239
7989.769,8.120685
7991.697,8.102905
7993.626,8.079333
7995.555,8.048249
7997.483,8.019608
7999.411,7.99102
8001.34,7.954587
8003.269,7.930336
8005.197,7.91273
8007.125,7.887989
8009.054,7.859507
8010.982,7.824622
8012.911,7.799246
8014.839,7.775869
8016.768,7.748996
8018.696,7.705886
8020.625,7.671288
8022.554,7.644791
8024.482,7.617956
8026.41,7.589545
8028.339,7.559803
8030.268,7.525959
8032.196,7.48906
8034.125,7.461355
8036.053,7.437702
8037.981,7.407354
8039.91,7.373203
8041.838,7.336173
8043.767,7.306182
8045.695,7.268663
8047.624,7.221205
8049.553,7.184038
8051.481,7.164188
8053.409,7.125993
8055.338,7.087085
8057.267,7.055506
8059.195,7.023327
8061.124,6.990928
8063.052,6.953449
8064.98,6.906759
8066.909,6.874041
8068.837,6.849654
8070.766,6.814937
8072.694,6.775511
8074.623,6.739802
8076.552,6.700502
8078.48,6.658285
8080.408,6.623694
8082.337,6.58854
8084.266,6.557041
8086.194,6.517285
8088.122,6.470857
8090.051,6.432482
8091.979,6.396585
8093.908,6.353747
8095.836,6.312683
8097.765,6.273322
8099.693,6.241848
8101.622,6.201745
8103.551,6.164839
8105.479,6.124777
8107.407,6.081829
8109.336,6.041893
8111.265,5.999397
8113.192,5.957235
8115.121,5.915855
8117.05,5.869628
8118.979,5.826106
8120.907,5.790088
8122.835,5.745959
8124.764,5.708032
8126.692,5.662105
8128.621,5.616782
8130.55,5.571417
8132.478,5.526802
8134.406,5.489532
8136.335,5.451123
8138.264,5.401901
8140.191,5.353273
8142.12,5.312586
8144.049,5.279756
8145.978,5.241732
8147.906,5.189698
8149.834,5.145271
8151.763,5.112289
8153.691,5.07313
8155.62,5.032178
8157.548,4.994668
8159.477,4.95782
8161.405,4.909372
8163.334,4.869452
8165.263,4.832381
8167.19,4.78568
8169.119,4.750927
8171.048,4.721578
8172.977,4.692475
8174.905,4.65954
8176.833,4.615919
8178.762,4.57668
8180.69,4.550296
8182.619,4.520462
8184.547,4.493242
8186.476,4.466117
8188.404,4.444955
8190.333,4.430662
8192.262,4.408063
8194.189,4.379992
8196.118,4.357077
8198.047,4.334363
8199.976,4.312991
8201.903,4.300115
8203.832,4.291767
8205.761,4.273996
8207.689,4.263446
8209.618,4.253104
8211.546,4.245468
8213.475,4.240479
8215.403,4.236548
8217.332,4.223107
8219.261,4.220912
8221.188,4.21962
8223.117,4.215027
8225.046,4.214869
8226.975,4.210879
8228.902,4.216888
8230.831,4.220428
8232.76,4.214949
8234.688,4.211359
8236.617,4.215912
8238.545,4.224785
8240.474,4.228358
8242.402,4.226929
8244.331,4.222286
8246.259,4.221812
8248.188,4.225698
8250.116,4.235778
8252.045,4.239495
8253.974,4.23823
8255.901,4.253988
8257.83,4.265851
8259.759,4.273714
8261.688,4.28172
8263.616,4.278519
8265.544,4.284162
8267.473,4.299932
8269.401,4.314031
8271.33,4.32847
8273.258,4.337327
8275.187,4.352137
8277.115,4.377244
8279.044,4.39242
8280.973,4.400004
8282.9,4.414313
8284.829,4.430144
8286.758,4.448883
8288.687,4.467327
8290.614,4.490305
8292.543,4.521455
8294.472,4.543754
8296.4,4.555883
8298.329,4.578189
8300.257,4.594763
8302.186,4.614874
8304.114,4.638188
8306.043,4.663947
8307.972,4.685129
8309.899,4.708528
8311.828,4.746482
8313.757,4.7713
8315.686,4.794045
8317.613,4.818496
8319.542,4.835598
8321.471,4.855984
8323.399,4.880927
8325.328,4.907134
8327.256,4.924808
8329.185,4.948073
8331.113,4.978455
8333.042,5.006833
8334.97,5.028424
8336.898,5.052198
8338.827,5.081204
8340.756,5.109576
8342.685,5.135301
8344.612,5.170074
8346.541,5.193583
8348.47,5.229917
8350.398,5.263762
8352.327,5.288024
8354.255,5.305936
8356.184,5.335407
8358.112,5.369448
8360.041,5.399304
8361.969,5.430623
8363.897,5.458732
8365.826,5.492799
8367.755,5.522962
8369.684,5.547477
8371.611,5.571782
8373.54,5.596292
8375.469,5.617244
8377.397,5.64412
8379.325,5.678235
8381.254,5.715642
8383.183,5.739579
8385.111,5.762114
8387.04,5.774434
8388.968,5.792021
8390.896,5.817726
8392.825,5.837494
8394.754,5.857797
8396.683,5.876091
8398.61,5.89424
8400.539,5.903414
8402.468,5.913888
8404.396,5.923902
8406.324,5.9339
8408.253,5.937136
8410.182,5.945677
8412.11,5.951122
8414.039,5.954483
8415.967,5.974617
8417.896,5.990119
8419.824,5.997293
8421.753,6.01265
8423.681,6.019368
8425.609,6.024144
8427.538,6.037525
8429.467,6.066019
8431.396,6.101324
8433.323,6.124938
8435.252,6.152404
8437.181,6.185955
8439.109,6.22892
8441.037,6.266792
8442.966,6.309658
8444.895,6.351561
8446.823,6.394603
8448.752,6.432611
8450.68,6.47807
8452.608,6.524837
8454.537,6.562547
8456.466,6.603192
8458.395,6.643434
8460.322,6.680094
8462.251,6.703479
8464.18,6.736598
8466.108,6.769191
8468.036,6.799945
8469.965,6.835199
8471.894,6.864955
8473.822,6.894841
8475.751,6.928597
8477.679,6.971158
8479.607,7.003209
8481.536,7.039516
8483.465,7.074328
8485.393,7.119442
8487.321,7.15372
8489.25,7.186105
8491.179,7.228831
8493.107,7.24766
8495.035,7.267115
8496.964,7.294572
8498.893,7.322627
8500.821,7.341532
8502.75,7.363024
8504.678,7.390474
8506.606,7.400457
8508.535,7.411394
8510.464,7.426756
8512.392,7.448093
8514.32,7.473543
8516.249,7.486281
8518.178,7.496504
8520.106,7.508929
8522.034,7.535026
8523.963,7.554886
8525.892,7.556795
8527.82,7.572932
8529.748,7.5972
8531.677,7.608794
8533.605,7.604783
8535.534,7.607972
8537.463,7.62194
8539.391,7.612534
8541.319,7.600023
8543.248,7.585631
8545.177,7.560305
8547.105,7.542689
8549.033,7.522257
8550.962,7.49236
8552.891,7.457028
8554.819,7.43282
8556.747,7.409397
8558.676,7.372845
8560.604,7.343932
8562.533,7.328676
8564.462,7.335645
8566.39,7.359575
8568.318,7.382526
8570.247,7.411857
8572.176,7.44969
8574.104,7.484861
8576.032,7.523311
8577.961,7.553515
8579.89,7.604238
8581.818,7.659795
8583.746,7.699807
8585.675,7.745032
8587.604,7.808705
8589.532,7.870674
8591.461,7.935645
8593.389,7.99362
8595.317,8.037027
8597.246,8.088963
8599.175,8.150591
8601.103,8.210146
8603.031,8.271052
8604.96,8.329728
8606.889,8.3873
8608.817,8.453389
8610.745,8.51254
8612.674,8.558664
8614.603,8.615308
8616.531,8.670833
8618.459,8.732203
8620.388,8.796527
8622.316,8.842589
8624.245,8.877949
8626.174,8.927063
8628.102,8.985396
8630.03,9.028221
8631.959,9.067397
8633.888,9.104695
8635.816,9.148077
8637.744,9.187553
8639.673,9.22176
8641.602,9.259591
8643.53,9.287026
8645.458,9.32586
8647.387,9.36556
8649.315,9.393636
8651.244,9.422415
8653.173,9.452974
8655.101,9.480333
8657.029,9.513142
8658.958,9.539704
8660.887,9.565248
8662.814,9.580636
8664.743,9.600466
8666.672,9.62949
8668.601,9.656585
8670.529,9.671371
8672.457,9.695191
8674.386,9.720902
8676.314,9.744843
8678.243,9.766876
8680.172,9.794564
8682.1,9.81263
8684.028,9.831342
8685.957,9.8547
8687.886,9.886875
8689.813,9.919716
8691.742,9.942609
8693.671,9.966655
8695.6,9.994158
8697.528,10.02132
8699.456,10.04152
8701.385,10.06892
8703.313,10.10457
8705.242,10.1432
8707.17,10.1812
8709.099,10.2153
8711.027,10.24694
8712.956,10.28172
8714.885,10.31482
8716.813,10.33986
8718.741,10.37231
8720.67,10.39965
8722.599,10.42799
8724.527,10.46469
8726.455,10.49485
8728.384,10.5287
8730.313,10.57007
8732.241,10.60444
8734.169,10.62694
8736.098,10.65038
8738.026,10.67972
8739.955,10.71616
8741.884,10.7479
8743.812,10.77141
8745.74,10.79907
8747.669,10.82095
8749.598,10.85066
8751.525,10.86955
8753.454,10.89286
8755.383,10.9322
8757.312,10.95967
8759.24,10.96906
8761.168,10.98315
8763.097,11.00377
8765.025,11.01972
8766.954,11.04442
8768.882,11.06515
8770.811,11.08351
8772.739,11.10907
8774.668,11.12915
8776.597,11.13881
8778.524,11.16351
8780.453,11.18911
8782.382,11.19859
8784.311,11.20955
8786.239,11.21549
8788.167,11.2299
8790.096,11.26442
8792.024,11.27257
8793.953,11.27362
8795.881,11.28255
8797.81,11.29531
8799.738,11.31059
8801.667,11.31355
8803.596,11.3277
8805.523,11.34686
8807.452,11.36791
8809.381,11.38321
8811.31,11.39228
8813.237,11.39822
8815.166,11.40422
8817.095,11.41561
8819.023,11.42588
8820.952,11.43059
8822.88,11.43815
8824.809,11.4411
8826.737,11.44037
8828.666,11.44802
8830.595,11.45942
8832.522,11.45613
8834.451,11.46997
8836.38,11.46884
8838.309,11.47087
8840.236,11.48687
8842.165,11.49054
8844.094,11.49582
8846.022,11.50416
8847.951,11.50139
8849.879,11.50237
8851.808,11.50763
8853.736,11.50877
8855.665,11.51001
8857.593,11.51418
8859.521,11.5113
8861.45,11.50844
8863.379,11.51582
8865.308,11.53269
8867.235,11.53642
8869.164,11.53233
8871.093,11.53326
8873.021,11.54042
8874.95,11.53802
8876.878,11.53876
8878.807,11.54067
8880.735,11.5464
8882.664,11.54263
8884.592,11.53705
8886.521,11.54261
8888.449,11.5472
8890.378,11.5437
8892.307,11.54829
8894.234,11.54489
8896.163,11.54409
8898.092,11.55017
8900.021,11.55432
8901.948,11.55216
8903.877,11.55214
8905.806,11.54
8907.734,11.53793
8909.663,11.53981
8911.591,11.54894
8913.52,11.54749
8915.448,11.54606
8917.377,11.54868
8919.306,11.54392
8921.233,11.54301
8923.162,11.54119
8925.091,11.53754
8927.02,11.53813
8928.947,11.54449
8930.876,11.53973
8932.805,11.52914
8934.733,11.5224
8936.662,11.53548
8938.59,11.53788
8940.519,11.52193
8942.447,11.51207
8944.376,11.51091
8946.304,11.52226
8948.232,11.5346
8950.161,11.54053
8952.09,11.53329
8954.019,11.52396
8955.946,11.52465
8957.875,11.51674
8959.804,11.5153
8961.732,11.52043
8963.661,11.52614
8965.589,11.52337
8967.518,11.52233
8969.446,11.52686
8971.375,11.52133
8973.303,11.51709
8975.231,11.51617
8977.16,11.51875
8979.089,11.52494
8981.018,11.53811
8982.945,11.54336
8984.874,11.54152
8986.803,11.53732
8988.731,11.5341
8990.659,11.53281
8992.588,11.53686
8994.517,11.53736
8996.445,11.53567
8998.374,11.52785
9000.302,11.53567
9002.23,11.54961
9004.159,11.55346
9006.088,11.54032
9008.017,11.53181
9009.944,11.53927
9011.873,11.54998
9013.802,11.54403
9015.73,11.5535
9017.658,11.55698
9019.587,11.54164
9021.516,11.55347
9023.444,11.56567
9025.373,11.56572
9027.301,11.5627
9029.229,11.56457
9031.158,11.56391
9033.087,11.57387
9035.015,11.56987
9036.943,11.57017
9038.872,11.56645
9040.801,11.55793
9042.729,11.56191
9044.657,11.58198
9046.586,11.58509
9048.515,11.58489
9050.443,11.57481
9052.372,11.58136
9054.3,11.58635
9056.229,11.57378
9058.157,11.58389
9060.086,11.60132
9062.014,11.59131
9063.942,11.58056
9065.871,11.58243
9067.8,11.57637
9069.729,11.57112
9071.656,11.58193
9073.585,11.58215
9075.514,11.56963
9077.442,11.56995
9079.37,11.58354
9081.299,11.59585
9083.228,11.58426
9085.156,11.58274
9087.085,11.577
9089.013,11.58014
9090.941,11.57973
9092.87,11.56922
9094.799,11.57728
9096.727,11.58185
9098.655,11.5811
9100.584,11.5885
9102.513,11.59371
9104.441,11.60215
9106.369,11.5923
9108.298,11.57934
9110.227,11.56876
9112.155,11.56532
9114.084,11.55917
9116.012,11.56993
9117.94,11.57153
9119.869,11.57121
9121.798,11.56899
9123.726,11.57387
9125.654,11.56932
9127.583,11.57611
9129.512,11.57179
9131.44,11.57015
9133.368,11.56411
9135.297,11.56256
9137.226,11.5597
9139.154,11.56381
9141.082,11.54352
9143.011,11.53798
9144.939,11.55192
9146.868,11.54604
9148.797,11.54724
9150.725,11.55285
9152.653,11.54774
9154.582,11.55372
9156.511,11.55545
9158.439,11.55287
9160.367,11.54084
9162.296,11.5227
9164.225,11.51614
9166.153,11.52072
9168.081,11.52828
9170.01,11.51132
9171.938,11.50614
9173.867,11.51588
9175.796,11.52335
9177.724,11.51755
9179.652,11.50701
9181.581,11.50148
9183.51,11.49556
9185.438,11.4826
9187.366,11.48362
9189.295,11.48152
9191.224,11.47783
9193.152,11.47786
9195.08,11.47224
9197.009,11.47173
9198.938,11.46393
9200.866,11.46845
9202.795,11.47369
9204.723,11.47434
9206.651,11.4717
9208.58,11.46958
9210.509,11.46568
9212.437,11.46418
9214.365,11.45623
9216.294,11.45011
9218.223,11.44124
9220.151,11.44228
9222.079,11.44032
9224.008,11.43582
9225.937,11.42432
9227.865,11.42695
9229.793,11.43297
9231.722,11.42989
9233.65,11.42649
9235.579,11.41959
9237.508,11.41292
9239.436,11.41498
9241.364,11.42124
9243.293,11.41121
9245.222,11.41067
9247.15,11.41508
9249.078,11.41365
9251.007,11.42089
9252.936,11.42014
9254.864,11.40231
9256.792,11.39263
9258.721,11.3853
9260.649,11.3799
9262.578,11.37916
9264.507,11.38269
9266.435,11.38824
9268.363,11.36817
9270.292,11.38123
9272.221,11.39347
9274.148,11.37873
9276.077,11.36816
9278.006,11.37337
9279.935,11.36395
9281.863,11.37153
9283.791,11.37067
9285.72,11.35639
9287.648,11.34337
9289.577,11.34372
9291.506,11.34469
9293.434,11.34247
9295.362,11.33002
9297.291,11.32993
9299.22,11.33812
9301.147,11.34587
9303.076,11.33915
9305.005,11.33108
9306.934,11.32117
9308.862,11.33282
9310.79,11.33474
9312.719,11.33095
9314.647,11.33524
9316.576,11.33645
9318.504,11.32848
9320.433,11.32403
9322.361,11.33163
9324.29,11.34149
9326.219,11.3501
9328.146,11.34314
9330.075,11.33021
9332.004,11.32183
9333.933,11.32059
9335.861,11.31724
9337.789,11.31283
9339.718,11.31853
9341.646,11.32055
9343.575,11.32867
9345.503,11.34328
9347.432,11.33825
9349.36,11.31653
9351.289,11.30721
9353.218,11.3104
9355.146,11.30084
9357.074,11.288
9359.003,11.28378
9360.932,11.28797
9362.859,11.28045
9364.788,11.27994
9366.717,11.28614
9368.646,11.2784
9370.574,11.26178
9372.502,11.25361
9374.431,11.2477
9376.359,11.24142
9378.288,11.24364
9380.217,11.25509
9382.145,11.25148
9384.073,11.23553
9386.002,11.24311
9387.931,11.22346
9389.858,11.21377
9391.787,11.21851
9393.716,11.21328
9395.645,11.19501
9397.573,11.19668
9399.501,11.19827
9401.43,11.21088
9403.358,11.20303
9405.287,11.18672
9407.215,11.17616
9409.144,11.17585
9411.072,11.1758
9413.001,11.16184
9414.93,11.16165
9416.857,11.15511
9418.786,11.13742
9420.715,11.14213
9422.644,11.15229
9424.571,11.13956
9426.5,11.13471
9428.429,11.12644
9430.357,11.10582
9432.286,11.09507
9434.214,11.09448
9436.143,11.09333
9438.071,11.09216
9440.0,11.09028
9441.929,11.07323
9443.856,11.06681
9445.785,11.05464
9447.714,11.03209
9449.643,11.03587
9451.57,11.05175
9453.499,11.03495
9455.428,11.035
9457.356,11.02654
9459.285,11.01591
9461.213,11.01983
9463.142,11.00663
9465.07,10.9823
9466.999,10.9812
9468.927,10.97155
9470.855,10.96256
9472.784,10.95991
9474.713,10.96414
9476.642,10.95802
9478.569,10.95248
9480.498,10.97045
9482.427,10.97635
9484.355,10.95144
9486.284,10.93057
9488.212,10.92969
9490.141,10.94182
9492.069,10.94005
9493.998,10.92044
9495.926,10.9117
9497.854,10.92361
9499.783,10.93123
9501.712,10.93048
9503.641,10.91694
9505.568,10.91578
9507.497,10.9211
9509.426,10.91043
9511.354,10.88662
9513.282,10.8969
9515.211,10.8901
9517.14,10.88071
9519.068,10.87566
9520.997,10.87115
9522.925,10.86039
9524.854,10.87621
9526.782,10.87581
9528.711,10.84403
9530.64,10.84365
9532.567,10.84899
9534.496,10.84415
9536.425,10.84896
9538.354,10.85157
9540.281,10.83337
9542.21,10.81422
9544.139,10.80812
9546.067,10.79577
9547.996,10.80435
9549.924,10.81085
9551.853,10.80465
9553.781,10.80256
9555.71,10.78834
9557.638,10.77019
9559.566,10.76157
9561.495,10.77217
9563.424,10.77887
9565.353,10.77843
9567.28,10.77454
9569.209,10.75273
9571.138,10.75389
9573.066,10.75492
9574.995,10.75333
9576.923,10.74399
9578.852,10.72914
9580.78,10.73315
9582.709,10.72295
9584.637,10.71174
9586.565,10.7118
9588.494,10.71339
9590.423,10.7071
9592.352,10.7106
9594.279,10.71139
9596.208,10.70693
9598.137,10.73194
9600.065,10.75605
9601.993,10.73767
9603.922,10.72051
9605.851,10.71702
9607.779,10.72276
9609.708,10.72652
9611.636,10.72702
9613.564,10.73601
9615.493,10.73664
9617.422,10.75406
9619.351,10.76289
9621.278,10.76679
9623.207,10.7635
9625.136,10.77223
9627.064,10.76626
9628.992,10.76691
9630.921,10.78037
9632.85,10.78313
9634.778,10.78761
9636.707,10.79762
9638.635,10.8033
9640.563,10.80373
9642.492,10.81466
9644.421,10.83081
9646.349,10.85389
9648.277,10.85838
9650.206,10.86553
9652.135,10.86722
9654.063,10.85906
9655.991,10.88222
9657.92,10.89347
9659.849,10.88766
9661.777,10.90028
9663.706,10.91728
9665.634,10.91068
9667.563,10.9242
9669.491,10.94175
9671.42,10.95003
9673.348,10.95501
9675.276,10.97058
9677.205,10.98013
9679.134,10.96135
9681.063,10.95286
9682.99,10.98096
9684.919,10.99987
9686.848,11.00443
9688.776,11.01228
9690.704,11.01605
9692.633,11.00509
9694.562,11.00848
9696.49,11.02472
9698.419,11.04991
9700.347,11.07035
9702.275,11.07222
9704.204,11.05748
9706.133,11.06321
9708.062,11.07631
9709.989,11.08082
9711.918,11.08572
9713.847,11.10672
9715.775,11.14242
9717.703,11.1452
9719.632,11.13822
9721.561,11.13817
9723.489,11.14913
9725.418,11.16625
9727.346,11.16938
9729.274,11.18703
9731.203,11.1931
9733.132,11.16679
9735.06,11.16494
9736.988,11.1966
9738.917,11.22144
9740.846,11.21718
9742.774,11.21533
9744.702,11.22682
9746.631,11.23727
9748.56,11.24789
9750.488,11.26856
9752.416,11.27058
9754.345,11.2726
9756.273,11.28308
9758.202,11.28176
9760.131,11.28002
9762.059,11.28218
9763.987,11.25805
9765.916,11.25517
9767.845,11.26218
9769.773,11.26607
9771.701,11.26401
9773.63,11.26223
9775.559,11.2665
9777.487,11.28581
9779.415,11.28809
9781.344,11.29863
9783.272,11.3149
9785.201,11.3068
9787.13,11.30154
9789.058,11.32094
9790.986,11.3105
9792.915,11.30843
9794.844,11.32555
9796.771,11.32219
9798.7,11.31599
9800.629,11.31666
9802.558,11.30752
9804.486,11.31453
9806.414,11.3152
9808.343,11.30181
9810.271,11.29116
9812.2,11.28841
9814.129,11.30061
9816.057,11.30737
9817.985,11.29703
9819.914,11.27931
9821.843,11.29495
9823.771,11.30457
9825.699,11.29991
9827.628,11.30141
9829.557,11.30417
9831.485,11.31686
9833.413,11.32559
9835.342,11.33736
9837.271,11.3415
9839.199,11.34237
9841.127,11.34404
9843.056,11.34971
9844.984,11.36557
9846.913,11.36441
9848.842,11.34579
9850.77,11.37384
9852.698,11.38668
9854.627,11.37432
9856.556,11.40383
9858.484,11.42601
9860.412,11.41085
9862.341,11.42056
9864.27,11.44862
9866.198,11.45985
9868.126,11.44847
9870.055,11.45412
9871.983,11.46656
9873.912,11.46494
9875.841,11.49529
9877.769,11.53627
9879.697,11.53661
9881.626,11.53429
9883.555,11.55182
9885.482,11.55346
9887.411,11.56039
9889.34,11.5622
9891.269,11.57561
9893.197,11.6057
9895.125,11.61129
9897.054,11.59134
9898.982,11.59864
9900.911,11.61131
9902.84,11.63721
9904.768,11.63955
9906.696,11.6409
9908.625,11.63723
9910.554,11.63661
9912.481,11.63925
9914.41,11.65105
9916.339,11.65582
9918.268,11.65806
9920.196,11.64837
9922.124,11.65161
9924.053,11.68392
9925.981,11.70892
9927.91,11.70276
9929.838,11.6867
9931.767,11.68189
9933.695,11.68393
9935.624,11.71925
9937.553,11.73891
9939.48,11.73867
9941.409,11.74283
9943.338,11.758
9945.267,11.77052
9947.195,11.7817
9949.123,11.77731
9951.052,11.773
9952.98,11.77818
9954.909,11.78493
9956.837,11.8231
9958.766,11.82908
9960.694,11.82381
9962.623,11.81864
9964.552,11.80853
9966.479,11.83539
9968.408,11.85527
9970.337,11.83952
9972.266,11.85477
9974.193,11.85277
9976.122,11.84828
9978.051,11.84248
9979.979,11.83901
9981.908,11.85037
9983.836,11.87631
9985.765,11.86139
9987.693,11.84915
9989.622,11.86776
9991.551,11.90284
9993.479,11.88505
9995.407,11.86931
9997.336,11.88639
9999.265,11.89883
10001.19,11.87206
10003.12,11.87702
10005.05,11.8934
10006.98,11.89033
10008.91,11.90002
10010.83,11.91359
10012.76,11.92022
10014.69,11.93349
10016.62,11.92773
10018.55,11.9133
10020.48,11.89285
10022.41,11.89422
10024.33,11.91698
10026.26,11.9202
10028.19,11.93349
10030.12,11.94773
10032.05,11.94641
10033.98,11.95917
10035.91,11.96041
10037.83,11.95027
10039.76,11.96067
10041.69,11.99394
10043.62,11.99933
10045.55,11.97958
10047.48,11.96311
10049.41,11.98222
10051.33,11.99889
10053.26,11.99182
10055.19,11.97624
10057.12,12.00109
10059.05,12.01036
10060.98,12.01519
10062.9,12.01012
10064.83,12.00327
10066.76,12.02098
10068.69,11.99795
10070.62,11.99
10072.55,12.02427
10074.48,12.04822
10076.4,12.03122
10078.33,12.03182
10080.26,12.03841
10082.19,12.02326
10084.12,12.01191
10086.05,12.03477
10087.98,12.06456
10089.9,12.05361
10091.83,12.05495
10093.76,12.06279
10095.69,12.05409
10097.62,12.04972
10099.55,12.06129
10101.47,12.08478
10103.4,12.07117
10105.33,12.05071
10107.26,12.0478
10109.19,12.05814
10111.12,12.06209
10113.05,12.04287
10114.97,12.01509
10116.9,12.0565
10118.83,12.06606
10120.76,12.05507
10122.69,12.07246
10124.62,12.09379
10126.54,12.10957
10128.47,12.11012
10130.4,12.09492
10132.33,12.06562
10134.26,12.06607
10136.19,12.0721
10138.12,12.09536
10140.04,12.091
10141.97,12.07122
10143.9,12.08712
10145.83,12.0956
10147.76,12.07462
10149.69,12.06711
10151.62,12.06695
10153.54,12.07925
10155.47,12.07182
10157.4,12.08851
10159.33,12.0996
10161.26,12.08604
10163.19,12.09159
10165.12,12.11136
10167.04,12.10147
10168.97,12.07917
10170.9,12.07177
10172.83,12.06537
10174.76,12.06195
10176.69,12.05891
10178.61,12.0371
10180.54,12.07102
10182.47,12.11197
10184.4,12.10091
10186.33,12.10024
10188.26,12.1021
10190.19,12.097
10192.11,12.06489
10194.04,12.08275
10195.97,12.10195
10197.9,12.08309
10199.83,12.07289
10201.76,12.1007
10203.69,12.08614
10205.61,12.06427
10207.54,12.08078
10209.47,12.10248
10211.4,12.12364
10213.33,12.09825
10215.26,12.06179
10217.18,12.06584
10219.11,12.07645
10221.04,12.11945
10222.97,12.1148
10224.9,12.07572
10226.83,12.07204
10228.76,12.08208
10230.68,12.06043
10232.61,12.05808
10234.54,12.07016
10236.47,12.07541
10238.4,12.05842
10240.33,12.04552
10242.25,12.05805
10244.18,12.05422
10246.11,12.03988
10248.04,12.03511
10249.97,12.05663
10251.9,12.06037
10253.83,12.05356
10255.75,12.03527
10257.68,12.04397
10259.61,12.0641
10261.54,12.06531
10263.47,12.08109
10265.4,12.06881
10267.33,12.05798
10269.25,12.0771
10271.18,12.07183
10273.11,12.06762
10275.04,12.07078
10276.97,12.06427
10278.9,12.06436
10280.83,12.04941
10282.75,12.03453
10284.68,12.03115
10286.61,12.05123
10288.54,12.04797
10290.47,12.04701
10292.4,12.04002
10294.32,12.04168
10296.25,12.03758
10298.18,12.07582
10300.11,12.0723
10302.04,12.02608
10303.97,12.02845
10305.9,12.05159
10307.82,12.05801
10309.75,12.03641
10311.68,12.02002
10313.61,11.9837
10315.54,11.99769
10317.47,11.99436
10319.4,11.96669
10321.32,12.00467
10323.25,12.03315
10325.18,12.02287
10327.11,12.00319
10329.04,12.01094
10330.97,11.98701
10332.89,11.96841
10334.82,12.00477
10336.75,12.03588
10338.68,12.01133
10340.61,12.00519
10342.54,11.98842
10344.47,11.98052
10346.39,11.99245
10348.32,12.01756
10350.25,12.00895
10352.18,12.0075
10354.11,11.99612
10356.04,11.99986
10357.96,12.00704
10359.89,11.97118
10361.82,11.95365
10363.75,11.98059
10365.68,11.97071
10367.61,11.9486
10369.54,11.96714
10371.46,11.98167
10373.39,11.98661
10375.32,11.9568
10377.25,11.9532
10379.18,11.9663
10381.11,11.96387
10383.04,11.98617
10384.96,11.96378
10386.89,11.9679
10388.82,11.98472
10390.75,11.96831
10392.68,11.93009
10394.61,11.9372
10396.54,11.93419
10398.46,11.91575
10400.39,11.90195
10402.32,11.94336
10404.25,11.93569
10406.18,11.94362
10408.11,11.94285
10410.03,11.93989
10411.96,11.90053
10413.89,11.91584
10415.82,11.91739
10417.75,11.91071
10419.68,11.92955
10421.61,11.93197
10423.53,11.92443
10425.46,11.93938
10427.39,11.89897
10429.32,11.86778
10431.25,11.89878
10433.18,11.88295
10435.1,11.853
10437.03,11.84504
10438.96,11.851
10440.89,11.84595
10442.82,11.85309
10444.75,11.86623
10446.68,11.87349
10448.6,11.85416
10450.53,11.81628
10452.46,11.81909
10454.39,11.84477
10456.32,11.8384
10458.25,11.83568
10460.18,11.85045
10462.1,11.81598
10464.03,11.83066
10465.96,11.82054
10467.89,11.78746
10469.82,11.77943
10471.75,11.79082
10473.67,11.78897
10475.6,11.78201
10477.53,11.77032
10479.46,11.7651
10481.39,11.7212
10483.32,11.73004
10485.25,11.73849
10487.17,11.7005
10489.1,11.69743
10491.03,11.75173
10492.96,11.74035
10494.89,11.68996
10496.82,11.6624
10498.75,11.6904
10500.67,11.65939
10502.6,11.64914
10504.53,11.655
10506.46,11.68305
10508.39,11.66712
10510.32,11.67622
10512.25,11.67997
10514.17,11.64657
10516.1,11.61416
10518.03,11.60586
10519.96,11.5977
10521.89,11.58894
10523.82,11.59058
10525.74,11.57116
10527.67,11.54798
10529.6,11.54
10531.53,11.53818
10533.46,11.5471
10535.39,11.55126
10537.32,11.52221
10539.24,11.49022
10541.17,11.46742
10543.1,11.5044
10545.03,11.47823
10546.96,11.41228
10548.89,11.43963
10550.81,11.44312
10552.74,11.41341
10554.67,11.38586
10556.6,11.34832
10558.53,11.31705
10560.46,11.29636
10562.39,11.31561
10564.31,11.33428
10566.24,11.32452
10568.17,11.29736
10570.1,11.23561
10572.03,11.22785
10573.96,11.21237
10575.89,11.18367
10577.81,11.13852
10579.74,11.11473
10581.67,11.11572
10583.6,11.10995
10585.53,11.06105
10587.46,11.08069
10589.38,11.10076
10591.31,11.05856
10593.24,11.04372
10595.17,11.04704
10597.1,11.0067
10599.03,10.93217
10600.96,10.91925
10602.88,10.94118
10604.81,10.88316
10606.74,10.86294
10608.67,10.86875
10610.6,10.85412
10612.53,10.79457
10614.46,10.73392
10616.38,10.71738
10618.31,10.7108
10620.24,10.64838
10622.17,10.60439
10624.1,10.60346
10626.03,10.5911
10627.96,10.56411
10629.88,10.53079
10631.81,10.48191
10633.74,10.42835
10635.67,10.41039
10637.6,10.42404
10639.53,10.41907
10641.45,10.38572
10643.38,10.36345
10645.31,10.31816
10647.24,10.24443
10649.17,10.19887
10651.1,10.18621
10653.03,10.17432
10654.95,10.15029
10656.88,10.12842
10658.81,10.07854
10660.74,10.04671
10662.67,10.04095
10664.6,10.0358
10666.52,10.02378
10668.45,9.97778
10670.38,9.948807
10672.31,9.911923
10674.24,9.881065
10676.17,9.884979
10678.1,9.875684
10680.02,9.831976
10681.95,9.798048
10683.88,9.76018
10685.81,9.7522
10687.74,9.722823
10689.67,9.683938
10691.59,9.699355
10693.52,9.673244
10695.45,9.634521
10697.38,9.638499
10699.31,9.615707
10701.24,9.630638
10703.17,9.642191
10705.09,9.634643
10707.02,9.6046
10708.95,9.575397
10710.88,9.571446
10712.81,9.547519
10714.74,9.541814
10716.67,9.525682
10718.59,9.537137
10720.52,9.476153
10722.45,9.47664
10724.38,9.506561
10726.31,9.515078
10728.24,9.541239
10730.17,9.548475
10732.09,9.52939
10734.02,9.557547
10735.95,9.562027
10737.88,9.517539
10739.81,9.513568
10741.74,9.561879
10743.67,9.593537
10745.59,9.560394
10747.52,9.558455
10749.45,9.595297
10751.38,9.603507
10753.31,9.596225
10755.24,9.591071
10757.16,9.591955
10759.09,9.634227
10761.02,9.681284
10762.95,9.662973
10764.88,9.640493
10766.81,9.670704
10768.74,9.713451
10770.66,9.747256
10772.59,9.754449
10774.52,9.715756
10776.45,9.758084
10778.38,9.796884
10780.31,9.827966
10782.23,9.858357
10784.16,9.867228
10786.09,9.853096
10788.02,9.846662
10789.95,9.865723
10791.88,9.861684
10793.81,9.867055
10795.73,9.885388
10797.66,9.916369
10799.59,9.945657
10801.52,9.953623
10803.45,9.947451
10805.38,9.962956
10807.3,9.998705
10809.23,10.04627
10811.16,10.07281
10813.09,10.07046
10815.02,10.11347
10816.95,10.12251
10818.88,10.14063
10820.8,10.1378
10822.73,10.13168
10824.66,10.1699
10826.59,10.17303
10828.52,10.18447
10830.45,10.2571
10832.38,10.29817
10834.3,10.32236
10836.23,10.35138
10838.16,10.39849
10840.09,10.39291
10842.02,10.41132
10843.95,10.37497
10845.88,10.37164
10847.8,10.4058
10849.73,10.46372
10851.66,10.51786
10853.59,10.49102
10855.52,10.47044
10857.45,10.49493
10859.38,10.53073
10861.3,10.57874
10863.23,10.6375
10865.16,10.66585
10867.09,10.68598
10869.02,10.68283
10870.95,10.70236
10872.87,10.71052
10874.8,10.67274
10876.73,10.71706
10878.66,10.77412
10880.59,10.80381
10882.52,10.76389
10884.45,10.78618
10886.37,10.8565
10888.3,10.83889
10890.23,10.81896
10892.16,10.88412
10894.09,10.87817
10896.02,10.8382
10897.94,10.87449
10899.87,10.92938
10901.8,10.91282
10903.73,10.94493
10905.66,10.95908
10907.59,10.98713
10909.52,10.98083
10911.44,10.98204
10913.37,11.01931
10915.3,11.05166
10917.23,11.07871
10919.16,11.08926
10921.09,11.07223
10923.01,11.09051
10924.94,11.12352
10926.87,11.10413
10928.8,11.09991
10930.73,11.12547
10932.66,11.12702
10934.59,11.14718
10936.51,11.18616
10938.44,11.21121
10940.37,11.1907
10942.3,11.19585
10944.23,11.25669
10946.16,11.26294
10948.09,11.24222
10950.01,11.26035
10951.94,11.27868
10953.87,11.29885
10955.8,11.30853
10957.73,11.37217
10959.66,11.40713
10961.58,11.43569
10963.51,11.46655
10965.44,11.47563
10967.37,11.45411
10969.3,11.44245
10971.23,11.47784
10973.16,11.47569
10975.08,11.43843
10977.01,11.43924
10978.94,11.44102
10980.87,11.49304
10982.8,11.49962
10984.73,11.47453
10986.66,11.49312
10988.58,11.53026
10990.51,11.58667
10992.44,11.61278
10994.37,11.58582
10996.3,11.61311
10998.23,11.61626
11000.16,11.58544
11002.08,11.64766
11004.01,11.66108
11005.94,11.66077
11007.87,11.64719
11009.8,11.70006
11011.73,11.72372
11013.65,11.71943
11015.58,11.7194
11017.51,11.71895
11019.44,11.70881
11021.37,11.7029
11023.3,11.7219
11025.23,11.72843
11027.15,11.7608
11029.08,11.77549
11031.01,11.81736
11032.94,11.83078
11034.87,11.73662
11036.8,11.71099
11038.72,11.75842
11040.65,11.81852
11042.58,11.8434
11044.51,11.80083
11046.44,11.81792
11048.37,11.81664
11050.3,11.82994
11052.22,11.83878
11054.15,11.88943
11056.08,11.86682
11058.01,11.81649
11059.94,11.81553
11061.87,11.82761
11063.79,11.85503
11065.72,11.88898
11067.65,11.89569
11069.58,11.88796
11071.51,11.88302
11073.44,11.91263
11075.37,11.93126
11077.29,11.91181
11079.22,11.92243
11081.15,11.94879
11083.08,11.92057
11085.01,11.85511
11086.94,11.86717
11088.87,11.89265
11090.79,11.85142
11092.72,11.85246
11094.65,11.83949
11096.58,11.88965
11098.51,11.97414
11100.44,11.94694
11102.37,11.9941
11104.29,12.0051
11106.22,11.99753
11108.15,12.02583
11110.08,11.98563
11112.01,11.93738
11113.94,11.95487
11115.87,11.97889
11117.79,11.96979
11119.72,11.95189
11121.65,11.96495
11123.58,11.9734
11125.51,11.9681
11127.44,11.9596
11129.36,11.93197
11131.29,11.95019
11133.22,11.95122
11135.15,11.96587
11137.08,11.93694
11139.01,11.91467
11140.94,11.97494
11142.86,12.03334
11144.79,12.01661
11146.72,12.00713
11148.65,11.99046
11150.58,12.00271
11152.51,11.97733
11154.43,12.00342
11156.36,12.01462
11158.29,12.00973
11160.22,12.02486
11162.15,12.0882
11164.08,12.12107
11166.01,12.07346
11167.93,12.059
11169.86,12.08777
11171.79,12.05824
11173.72,12.0447
11175.65,12.0201
11177.58,12.07752
11179.5,12.11973
11181.43,12.10731
11183.36,12.11916
11185.29,12.09638
11187.22,12.0879
11189.15,12.09915
11191.08,12.16352
11193.0,12.16585
11194.93,12.15277
11196.86,12.20321
11198.79,12.1753
11200.72,12.12254
11202.65,12.14596
11204.58,12.21306
11206.5,12.20649
11208.43,12.19157
11210.36,12.18538
11212.29,12.18769
11214.22,12.21141
11216.15,12.24473
11218.08,12.26077
11220.0,12.24749
11221.93,12.27383
11223.86,12.25425
11225.79,12.2214
11227.72,12.23249
11229.65,12.25452
11231.58,12.28523
11233.5,12.32502
11235.43,12.35401
11237.36,12.30661
11239.29,12.25106
11241.22,12.26143
11243.15,12.27371
11245.07,12.28993
11247.0,12.34445
11248.93,12.3267
11250.86,12.29978
11252.79,12.3485
11254.72,12.35054
11256.65,12.41177
11258.57,12.44739
11260.5,12.3937
11262.43,12.33565
11264.36,12.29728
11266.29,12.31789
11268.22,12.3659
11270.14,12.40423
11272.07,12.34746
11274.0,12.30587
11275.93,12.32609
11277.86,12.35506
11279.79,12.33533
11281.72,12.39438
11283.64,12.42508
11285.57,12.34031
11287.5,12.39686
11289.43,12.43537
11291.36,12.38816
11293.29,12.38336
11295.21,12.32175
11297.14,12.3323
11299.07,12.37239
11301.0,12.38648
11302.93,12.37376
11304.86,12.40054
11306.79,12.45549
11308.71,12.43905
11310.64,12.41303
11312.57,12.46755
11314.5,12.42048
11316.43,12.3762
11318.36,12.32611
11320.29,12.3703
11322.21,12.48469
11324.14,12.53115
11326.07,12.5049
11328.0,12.46626
11329.93,12.44002
11331.86,12.40051
11333.79,12.47685
11335.71,12.53767
11337.64,12.48639
11339.57,12.4206
11341.5,12.45149
11343.43,12.50245
11345.36,12.53465
11347.28,12.60562
11349.21,12.5627
11351.14,12.49884
11353.07,12.54113
11355.0,12.56383
11356.93,12.51871
11358.86,12.4481
11360.78,12.48298
11362.71,12.50068
11364.64,12.44151
11366.57,12.42676
11368.5,12.41624
11370.43,12.46192
11372.36,12.47969
11374.28,12.42332
11376.21,12.45506
11378.14,12.48487
11380.07,12.52819
11382.0,12.57012
11383.93,12.56468
11385.85,12.51027
11387.78,12.52966
11389.71,12.51775
11391.64,12.56208
11393.57,12.56961
11395.5,12.57312
11397.43,12.51848
11399.35,12.56244
11401.28,12.58651
11403.21,12.51209
11405.14,12.48665
11407.07,12.54311
11409.0,12.62095
11410.92,12.59171
11412.85,12.60696
11414.78,12.57826
11416.71,12.59664
11418.64,12.68071
11420.57,12.65576
11422.5,12.55413
11424.42,12.56853
11426.35,12.54992
11428.28,12.59994
11430.21,12.63572
11432.14,12.62744
11434.07,12.6021
11436.0,12.64222
11437.92,12.61187
11439.85,12.66899
11441.78,12.61992
11443.71,12.53415
11445.64,12.52911
11447.57,12.56994
11449.5,12.62411
11451.42,12.66157
11453.35,12.62377
11455.28,12.62411
11457.21,12.61172
11459.14,12.59566
11461.07,12.57207
11462.99,12.60414
11464.92,12.58437
11466.85,12.54895
11468.78,12.62592
11470.71,12.69175
11472.64,12.58258
11474.57,12.54489
11476.49,12.63169
11478.42,12.73047
11480.35,12.68594
11482.28,12.63236
11484.21,12.62065
11486.14,12.56125
11488.07,12.54873
11489.99,12.58472
11491.92,12.64732
11493.85,12.70092
11495.78,12.69437
11497.71,12.63103
11499.64,12.65781
11501.56,12.71053
11503.49,12.69152
11505.42,12.65282
11507.35,12.73401
11509.28,12.72283
11511.21,12.63797
11513.14,12.68798
11515.06,12.64374
11516.99,12.64175
11518.92,12.69674
11520.85,12.66724
11522.78,12.63794
11524.71,12.65286
11526.63,12.65709
11528.56,12.63476
11530.49,12.71087
11532.42,12.75601
11534.35,12.71751
11536.28,12.67579
11538.21,12.64406
11540.13,12.62515
11542.06,12.64752
11543.99,12.6363
11545.92,12.66302
11547.85,12.73063
11549.78,12.72859
11551.71,12.69718
11553.63,12.67609
11555.56,12.69069
11557.49,12.77355
11559.42,12.79906
11561.35,12.71639
11563.28,12.72163
11565.21,12.65563
11567.13,12.68368
11569.06,12.67951
11570.99,12.68981
11572.92,12.66615
11574.85,12.66019
11576.78,12.73035
11578.7,12.76443
11580.63,12.73746
11582.56,12.68706
11584.49,12.73138
11586.42,12.84142
11588.35,12.88581
11590.28,12.81179
11592.2,12.73669
11594.13,12.75503
11596.06,12.71958
11597.99,12.63296
11599.92,12.61264
11601.85,12.69906
11603.78,12.74183
11605.7,12.71396
11607.63,12.79648
11609.56,12.97382
11611.49,12.98913
11613.42,12.84833
11615.35,12.70196
11617.27,12.73527
11619.2,12.85793
11621.13,12.8851
11623.06,12.88662
11624.99,12.84918
11626.92,12.76694
11628.85,12.69473
11630.77,12.67242
11632.7,12.77324
11634.63,12.79448
11636.56,12.80118
11638.49,12.82031
11640.42,12.78313
11642.34,12.74505
11644.27,12.68799
11646.2,12.68462
11648.13,12.73076
11650.06,12.7285
11651.99,12.75239
11653.92,12.8093
11655.84,12.84595
11657.77,12.85569
11659.7,12.82577
11661.63,12.76241
11663.56,12.65957
11665.49,12.65222
11667.42,12.69284
11669.34,12.74234
11671.27,12.80277
11673.2,12.80932
11675.13,12.74459
11677.06,12.72323
11678.99,12.73418
11680.92,12.73269
11682.84,12.77103
11684.77,12.73716
11686.7,12.77148
11688.63,12.7465
11690.56,12.70502
11692.49,12.72961
11694.41,12.74576
11696.34,12.72222
11698.27,12.68596
11700.2,12.70725
11702.13,12.76632
11704.06,12.76656
11705.99,12.78771
11707.91,12.61157
11709.84,12.6203
11711.77,12.79867
11713.7,12.88068
11715.63,12.87192
11717.56,12.83866
11719.48,12.80708
11721.41,12.75576
11723.34,12.83744
11725.27,12.92827
11727.2,12.80935
11729.13,12.68887
11731.06,12.70561
11732.98,12.69125
11734.91,12.77111
11736.84,12.78764
11738.77,12.83244
11740.7,12.81317
11742.63,12.77451
11744.56,12.85616
11746.48,12.87535
11748.41,12.87864
11750.34,12.81549
11752.27,12.84277
11754.2,12.89212
11756.13,12.91706
11758.05,12.81642
11759.98,12.75377
11761.91,12.87729
11763.84,12.96415
11765.77,12.951
11767.7,12.89077
11769.63,12.84064
11771.55,12.80196
11773.48,12.84378
11775.41,12.8988
11777.34,12.91548
11779.27,12.80609
11781.2,12.73284
11783.13,12.65616
11785.05,12.66732
11786.98,12.71211
11788.91,12.76696
11790.84,12.74191
11792.77,12.75436
11794.7,12.72559
11796.63,12.69443
11798.55,12.74952
11800.48,12.78675
11802.41,12.70274
11804.34,12.63449
11806.27,12.75768
11808.2,12.83903
11810.12,12.7972
11812.05,12.77676
11813.98,12.77321
11815.91,12.83192
11817.84,12.8731
11819.77,12.75018
11821.7,12.79506
11823.62,12.74702
11825.55,12.71255
11827.48,12.77492
11829.41,12.72271
11831.34,12.70324
11833.27,12.82596
11835.19,12.87251
11837.12,12.69527
11839.05,12.72585
11840.98,12.82594
11842.91,12.84215
11844.84,12.7063
11846.77,12.52041
11848.69,12.26417
11850.62,12.54511
11852.55,12.7178
11854.48,12.69122
11856.41,12.64557
11858.34,12.77364
11860.27,12.77758
11862.19,12.66086
11864.12,12.81528
11866.05,12.97245
11867.98,12.93689
11869.91,12.80948
11871.84,12.67325
11873.76,12.68968
11875.69,12.67149
11877.62,12.76754
11879.55,12.74576
11881.48,12.67064
11883.41,12.68489
11885.34,12.60058
11887.26,12.64614
11889.19,12.78087
11891.12,12.77192
11893.05,12.71989
11894.98,12.79043
11896.91,12.68666
11898.83,12.64848
11900.76,12.7466
11902.69,12.73005
11904.62,12.78798
11906.55,12.85258
11908.48,12.82959
11910.41,12.70519
11912.33,12.63061
11914.26,12.64983
11916.19,12.74465
11918.12,12.80484
11920.05,12.84701
11921.98,12.89735
11923.91,12.77985
11925.83,12.81003
11927.76,12.93245
11929.69,12.91375
11931.62,12.80527
11933.55,12.73363
11935.48,12.69106
11937.41,12.71953
11939.33,12.88643
11941.26,12.79955
11943.19,12.58771
11945.12,12.68965
11947.05,12.78128
11948.98,12.73869
11950.9,12.72348
11952.83,12.73203
11954.76,12.81639
11956.69,12.75516
11958.62,12.83934
11960.55,12.90002
11962.48,12.73861
11964.4,12.7124
11966.33,12.70951
11968.26,12.67372
11970.19,12.68243
11972.12,12.60052
11974.05,12.54942
11975.98,12.57799
11977.9,12.67414
11979.83,12.75048
11981.76,12.71673
11983.69,12.64695
11985.62,12.67298
11987.55,12.74904
11989.47,12.70326
11991.4,12.72138
11993.33,12.7162
11995.26,12.71227
11997.19,12.74832
11999.12,12.80127
