Wavenumber,Intensity
3999.706,1.559556
4001.634,1.554557
4003.563,1.55179
4005.491,1.552428
4007.42,1.555187
4009.348,1.558069
4011.277,1.560073
4013.205,1.559834
4015.134,1.558254
4017.062,1.557872
4018.991,1.558915
4020.919,1.558557
4022.848,1.558879
4024.776,1.561649
4026.705,1.561962
4028.633,1.562426
4030.562,1.56097
4032.49,1.564252
4034.419,1.563214
4036.347,1.562733
4038.276,1.562505
4040.204,1.564651
4042.133,1.563434
4044.061,1.566554
4045.99,1.567027
4047.918,1.562922
4049.847,1.5632
4051.775,1.56841
4053.704,1.56994
4055.632,1.569782
4057.561,1.571664
4059.489,1.569571
4061.418,1.568755
4063.346,1.572091
4065.275,1.570804
4067.203,1.567831
4069.132,1.569478
4071.06,1.571372
4072.989,1.570563
4074.917,1.571653
4076.846,1.576023
4078.774,1.577444
4080.703,1.576207
4082.631,1.57596
4084.56,1.572465
4086.488,1.5706
4088.417,1.572135
4090.345,1.569222
4092.274,1.572428
4094.202,1.572816
4096.131,1.570653
4098.059,1.571426
4099.988,1.573277
4101.916,1.575984
4103.845,1.576169
4105.773,1.575162
4107.702,1.572582
4109.63,1.575493
4111.559,1.577057
4113.487,1.576232
4115.416,1.578368
4117.344,1.579856
4119.273,1.578429
4121.201,1.575486
4123.13,1.573559
4125.058,1.575731
4126.987,1.581851
4128.915,1.584714
4130.844,1.584052
4132.772,1.58375
4134.701,1.584
4136.629,1.581079
4138.558,1.579889
4140.486,1.580967
4142.415,1.582715
4144.343,1.580559
4146.271,1.579575
4148.2,1.581524
4150.129,1.582199
4152.057,1.583701
4153.986,1.58144
4155.914,1.584066
4157.843,1.585385
4159.771,1.582092
4161.7,1.580816
4163.628,1.583683
4165.557,1.587292
4167.485,1.58933
4169.414,1.587991
4171.342,1.58834
4173.271,1.592024
4175.199,1.594767
4177.127,1.597955
4179.056,1.596262
4180.985,1.59299
4182.913,1.591028
4184.842,1.59239
4186.77,1.591398
4188.699,1.595516
4190.627,1.59762
4192.556,1.598063
4194.484,1.604102
4196.413,1.604693
4198.341,1.600691
4200.27,1.603129
4202.198,1.606436
4204.126,1.612147
4206.055,1.613402
4207.983,1.613444
4209.912,1.613014
4211.841,1.614841
4213.769,1.614418
4215.698,1.618136
4217.626,1.620679
4219.555,1.619785
4221.483,1.621568
4223.412,1.624172
4225.34,1.623116
4227.269,1.624507
4229.197,1.625685
4231.125,1.627432
4233.054,1.629461
4234.982,1.630945
4236.911,1.633338
4238.84,1.631955
4240.768,1.627958
4242.697,1.628229
4244.625,1.628044
4246.554,1.624431
4248.482,1.620818
4250.411,1.619712
4252.339,1.620484
4254.268,1.623069
4256.196,1.625126
4258.125,1.628773
4260.053,1.635229
4261.981,1.637973
4263.91,1.638064
4265.838,1.639507
4267.767,1.641095
4269.696,1.642292
4271.624,1.643677
4273.553,1.64674
4275.481,1.649947
4277.41,1.650671
4279.338,1.649084
4281.267,1.650561
4283.195,1.653563
4285.124,1.654171
4287.052,1.652771
4288.98,1.652916
4290.909,1.652491
4292.837,1.652732
4294.766,1.652925
4296.694,1.656127
4298.623,1.658784
4300.552,1.657792
4302.48,1.656086
4304.409,1.657359
4306.337,1.653106
4308.266,1.650854
4310.194,1.651942
4312.123,1.650381
4314.051,1.64668
4315.979,1.642232
4317.908,1.634482
4319.836,1.626456
4321.765,1.623452
4323.693,1.621892
4325.622,1.626803
4327.551,1.63338
4329.479,1.635887
4331.408,1.637192
4333.336,1.639313
4335.265,1.64114
4337.193,1.644506
4339.122,1.647819
4341.05,1.650636
4342.979,1.650595
4344.907,1.653443
4346.835,1.652014
4348.764,1.6535
4350.692,1.658142
4352.621,1.664296
4354.549,1.664327
4356.478,1.663699
4358.407,1.661244
4360.335,1.660399
4362.264,1.661009
4364.192,1.660363
4366.121,1.664289
4368.049,1.669311
4369.978,1.66879
4371.906,1.669488
4373.834,1.669221
4375.763,1.667422
4377.691,1.66638
4379.62,1.669476
4381.548,1.673404
4383.477,1.671223
4385.405,1.668756
4387.334,1.66955
4389.263,1.671719
4391.191,1.672364
4393.12,1.67713
4395.048,1.675213
4396.977,1.672188
4398.905,1.674916
4400.833,1.678024
4402.762,1.680805
4404.69,1.683632
4406.619,1.685074
4408.547,1.686494
4410.476,1.688511
4412.404,1.692195
4414.333,1.697456
4416.262,1.70141
4418.19,1.706257
4420.119,1.709059
4422.047,1.711603
4423.976,1.716046
4425.904,1.722973
4427.833,1.730744
4429.761,1.734782
4431.689,1.737065
4433.618,1.742936
4435.546,1.747108
4437.475,1.753905
4439.403,1.762346
4441.332,1.768029
4443.26,1.773677
4445.189,1.781168
4447.117,1.787705
4449.046,1.794844
4450.975,1.801776
4452.903,1.811166
4454.832,1.816358
4456.76,1.824561
4458.688,1.831843
4460.617,1.84011
4462.545,1.848016
4464.474,1.852035
4466.402,1.86112
4468.331,1.86785
4470.259,1.872984
4472.188,1.880663
4474.116,1.887764
4476.045,1.894978
4477.974,1.90286
4479.902,1.913354
4481.831,1.923416
4483.759,1.930006
4485.688,1.936263
4487.616,1.942757
4489.544,1.951955
4491.473,1.964881
4493.401,1.974073
4495.33,1.981626
4497.258,1.990774
4499.187,2.000762
4501.115,2.012751
4503.044,2.018605
4504.972,2.026793
4506.901,2.037363
4508.83,2.044013
4510.758,2.055468
4512.687,2.067828
4514.615,2.075099
4516.543,2.083432
4518.472,2.096107
4520.4,2.106885
4522.329,2.116029
4524.257,2.12174
4526.186,2.129113
4528.114,2.140365
4530.043,2.149012
4531.971,2.156754
4533.9,2.16736
4535.828,2.179865
4537.757,2.190914
4539.686,2.203418
4541.614,2.211586
4543.542,2.221062
4545.471,2.235038
4547.399,2.243002
4549.328,2.250821
4551.256,2.262292
4553.185,2.275398
4555.113,2.287077
4557.042,2.296791
4558.97,2.308273
4560.899,2.320964
4562.827,2.331336
4564.756,2.340197
4566.685,2.34831
4568.613,2.356239
4570.542,2.366468
4572.47,2.378805
4574.398,2.384478
4576.327,2.390841
4578.255,2.397551
4580.184,2.401971
4582.112,2.410825
4584.041,2.418797
4585.969,2.423248
4587.898,2.429825
4589.826,2.436211
4591.755,2.441814
4593.683,2.449175
4595.612,2.452124
4597.54,2.454439
4599.469,2.45811
4601.397,2.461689
4603.326,2.466998
4605.254,2.4714
4607.183,2.475519
4609.111,2.481813
4611.04,2.488611
4612.968,2.494052
4614.897,2.495229
4616.825,2.498594
4618.754,2.506582
4620.682,2.513033
4622.611,2.516996
4624.539,2.521408
4626.468,2.525923
4628.396,2.530069
4630.325,2.534621
4632.253,2.535691
4634.182,2.537059
4636.11,2.539317
4638.039,2.540773
4639.967,2.542248
4641.896,2.546117
4643.824,2.547478
4645.753,2.545702
4647.681,2.543373
4649.61,2.542516
4651.538,2.542704
4653.467,2.537446
4655.396,2.531786
4657.324,2.525459
4659.252,2.514163
4661.181,2.506743
4663.109,2.499816
4665.038,2.495178
4666.966,2.494262
4668.895,2.497377
4670.823,2.501631
4672.752,2.509363
4674.68,2.520885
4676.609,2.532569
4678.537,2.544054
4680.466,2.552734
4682.394,2.562809
4684.323,2.573441
4686.251,2.577945
4688.18,2.583288
4690.108,2.586126
4692.037,2.584385
4693.965,2.583762
4695.894,2.589926
4697.822,2.587729
4699.751,2.588763
4701.679,2.590044
4703.608,2.586116
4705.536,2.584289
4707.465,2.583042
4709.393,2.579448
4711.322,2.578356
4713.25,2.578692
4715.179,2.575136
4717.107,2.567861
4719.036,2.562421
4720.964,2.560849
4722.893,2.555652
4724.821,2.552418
4726.75,2.548401
4728.678,2.543621
4730.606,2.541148
4732.535,2.537687
4734.464,2.534845
4736.392,2.534198
4738.321,2.534529
4740.249,2.531662
4742.178,2.529652
4744.106,2.529315
4746.035,2.523783
4747.963,2.518855
4749.892,2.517471
4751.82,2.516504
4753.749,2.513442
4755.677,2.510273
4757.605,2.507968
4759.534,2.50411
4761.463,2.499499
4763.391,2.494911
4765.32,2.487712
4767.248,2.478829
4769.177,2.472297
4771.105,2.468403
4773.034,2.46044
4774.962,2.449002
4776.891,2.444244
4778.819,2.439213
4780.748,2.436202
4782.676,2.435823
4784.604,2.434942
4786.533,2.433991
4788.462,2.431838
4790.39,2.424909
4792.319,2.420869
4794.247,2.423042
4796.176,2.42286
4798.104,2.417726
4800.033,2.413522
4801.961,2.406518
4803.89,2.39911
4805.818,2.398086
4807.747,2.396766
4809.675,2.389386
4811.604,2.381248
4813.532,2.37365
4815.46,2.368751
4817.389,2.362054
4819.317,2.354949
4821.246,2.350564
4823.175,2.34267
4825.103,2.337083
4827.032,2.33579
4828.96,2.328706
4830.889,2.320948
4832.817,2.315087
4834.746,2.311051
4836.674,2.30852
4838.603,2.302533
4840.531,2.293015
4842.459,2.28194
4844.388,2.277804
4846.316,2.269983
4848.245,2.257439
4850.174,2.248617
4852.102,2.241978
4854.031,2.236434
4855.959,2.230622
4857.888,2.22584
4859.816,2.219842
4861.745,2.215461
4863.673,2.210307
4865.602,2.205604
4867.53,2.198913
4869.458,2.197259
4871.387,2.199701
4873.315,2.201037
4875.244,2.202809
4877.172,2.207553
4879.101,2.211168
4881.03,2.210316
4882.958,2.212106
4884.887,2.214259
4886.815,2.216136
4888.744,2.218464
4890.672,2.220841
4892.601,2.224172
4894.529,2.228774
4896.458,2.230678
4898.386,2.231789
4900.314,2.232627
4902.243,2.2329
4904.171,2.236146
4906.1,2.239767
4908.028,2.240241
4909.957,2.23967
4911.886,2.238829
4913.814,2.238892
4915.743,2.238904
4917.671,2.238207
4919.6,2.238226
4921.528,2.238694
4923.457,2.236894
4925.385,2.235661
4927.313,2.235495
4929.242,2.235575
4931.17,2.233452
4933.099,2.234768
4935.027,2.238091
4936.956,2.236412
4938.885,2.232633
4940.813,2.231771
4942.742,2.230222
4944.67,2.226843
4946.599,2.220891
4948.527,2.211517
4950.456,2.202864
4952.384,2.193535
4954.313,2.181664
4956.241,2.168586
4958.169,2.154753
4960.098,2.138816
4962.026,2.126857
4963.955,2.1219
4965.883,2.12056
4967.812,2.124293
4969.74,2.128761
4971.669,2.135375
4973.598,2.139428
4975.526,2.144336
4977.455,2.147235
4979.383,2.149256
4981.312,2.1532
4983.24,2.159346
4985.168,2.164778
4987.097,2.168254
4989.025,2.173436
4990.954,2.181383
4992.882,2.188847
4994.811,2.196152
4996.739,2.205965
4998.668,2.21784
5000.597,2.22374
5002.525,2.226415
5004.454,2.229305
5006.382,2.234133
5008.311,2.238896
5010.239,2.242445
5012.167,2.242152
5014.096,2.244703
5016.024,2.246427
5017.953,2.247781
5019.881,2.249165
5021.81,2.249994
5023.738,2.253228
5025.667,2.256505
5027.596,2.259302
5029.524,2.262053
5031.452,2.267005
5033.381,2.270159
5035.31,2.269267
5037.238,2.270089
5039.167,2.273884
5041.095,2.27315
5043.023,2.272391
5044.952,2.272173
5046.88,2.272507
5048.809,2.273228
5050.737,2.271395
5052.666,2.267079
5054.595,2.265284
5056.523,2.262404
5058.451,2.259717
5060.38,2.257417
5062.309,2.258109
5064.237,2.254019
5066.166,2.253415
5068.094,2.254741
5070.022,2.253373
5071.951,2.251628
5073.879,2.253617
5075.808,2.255636
5077.736,2.255233
5079.665,2.254099
5081.593,2.251757
5083.522,2.249788
5085.45,2.250448
5087.379,2.245515
5089.308,2.245703
5091.236,2.245198
5093.165,2.243707
5095.093,2.241536
5097.021,2.239178
5098.95,2.239683
5100.878,2.239427
5102.807,2.239125
5104.735,2.243458
5106.664,2.248075
5108.592,2.250168
5110.521,2.250986
5112.449,2.251215
5114.378,2.253445
5116.307,2.255999
5118.235,2.258374
5120.163,2.258795
5122.092,2.260894
5124.021,2.264308
5125.949,2.26532
5127.877,2.263652
5129.806,2.264837
5131.734,2.267965
5133.663,2.268403
5135.591,2.269855
5137.52,2.269002
5139.448,2.265241
5141.377,2.262116
5143.305,2.262796
5145.234,2.261082
5147.162,2.257328
5149.091,2.251976
5151.02,2.250396
5152.948,2.248494
5154.876,2.247623
5156.805,2.249161
5158.733,2.248458
5160.662,2.245018
5162.59,2.244756
5164.519,2.244297
5166.447,2.244476
5168.376,2.247571
5170.304,2.248352
5172.233,2.244489
5174.161,2.24433
5176.09,2.24398
5178.019,2.243942
5179.947,2.247322
5181.875,2.248224
5183.804,2.247705
5185.732,2.243368
5187.661,2.241172
5189.589,2.241065
5191.518,2.242926
5193.446,2.245226
5195.375,2.246274
5197.303,2.247234
5199.232,2.243527
5201.16,2.245529
5203.089,2.251096
5205.018,2.259986
5206.946,2.258583
5208.874,2.251699
5210.803,2.245603
5212.731,2.245989
5214.66,2.246645
5216.588,2.248775
5218.517,2.248008
5220.445,2.245614
5222.374,2.250352
5224.302,2.258473
5226.231,2.256989
5228.159,2.251958
5230.088,2.253983
5232.016,2.256141
5233.945,2.252286
5235.873,2.254317
5237.802,2.257932
5239.73,2.258117
5241.659,2.263113
5243.587,2.27409
5245.516,2.27456
5247.444,2.273104
5249.373,2.272746
5251.301,2.272222
5253.229,2.276372
5255.158,2.280209
5257.087,2.274892
5259.015,2.275231
5260.944,2.280012
5262.872,2.283178
5264.801,2.27932
5266.729,2.273254
5268.658,2.276006
5270.586,2.270421
5272.515,2.268756
5274.443,2.272296
5276.372,2.271965
5278.3,2.274149
5280.229,2.277528
5282.157,2.275222
5284.086,2.277851
5286.014,2.278647
5287.943,2.279013
5289.871,2.284011
5291.8,2.279761
5293.729,2.271997
5295.657,2.26971
5297.585,2.27018
5299.514,2.268047
5301.442,2.265455
5303.371,2.26279
5305.299,2.261464
5307.228,2.265175
5309.156,2.262726
5311.085,2.261563
5313.013,2.263756
5314.941,2.269883
5316.87,2.278915
5318.799,2.283854
5320.727,2.290014
5322.656,2.294984
5324.584,2.298338
5326.513,2.301786
5328.441,2.301234
5330.37,2.299788
5332.298,2.297823
5334.227,2.29024
5336.155,2.291674
5338.084,2.294688
5340.012,2.284434
5341.94,2.277284
5343.869,2.279138
5345.798,2.268942
5347.726,2.259441
5349.655,2.2451
5351.583,2.239393
5353.512,2.239794
5355.44,2.229007
5357.369,2.218509
5359.297,2.21433
5361.226,2.212807
5363.154,2.207196
5365.083,2.198394
5367.011,2.191543
5368.939,2.183969
5370.868,2.176327
5372.797,2.174889
5374.725,2.176702
5376.654,2.174605
5378.582,2.168423
5380.511,2.160087
5382.439,2.159773
5384.368,2.159586
5386.296,2.154128
5388.225,2.144153
5390.153,2.139391
5392.082,2.138058
5394.01,2.135114
5395.938,2.127311
5397.867,2.117758
5399.796,2.111507
5401.724,2.107943
5403.652,2.101512
5405.581,2.09462
5407.51,2.08868
5409.438,2.088427
5411.367,2.081533
5413.295,2.07219
5415.224,2.058378
5417.152,2.04632
5419.081,2.038414
5421.009,2.035589
5422.938,2.034751
5424.866,2.03068
5426.795,2.029414
5428.723,2.030509
5430.651,2.024515
5432.58,2.02439
5434.509,2.023918
5436.437,2.019702
5438.366,2.019693
5440.294,2.021898
5442.223,2.018056
5444.151,2.015631
5446.08,2.013279
5448.008,2.008609
5449.937,2.005568
5451.865,2.001808
5453.793,1.999174
5455.722,2.000908
5457.65,2.000541
5459.579,2.00056
5461.508,1.997439
5463.436,1.996546
5465.365,1.992736
5467.293,1.991911
5469.222,1.989579
5471.15,1.984919
5473.079,1.983403
5475.007,1.984262
5476.936,1.978255
5478.864,1.972546
5480.792,1.968568
5482.721,1.967628
5484.649,1.96689
5486.578,1.963518
5488.507,1.961071
5490.435,1.960445
5492.363,1.967728
5494.292,1.962425
5496.221,1.955942
5498.149,1.957765
5500.078,1.958459
5502.006,1.959618
5503.935,1.961947
5505.863,1.961492
5507.792,1.963357
5509.72,1.962485
5511.648,1.961137
5513.577,1.96284
5515.505,1.968064
5517.434,1.969082
5519.362,1.968355
5521.291,1.967772
5523.22,1.966126
5525.148,1.963042
5527.077,1.966028
5529.005,1.966644
5530.934,1.964669
5532.862,1.964164
5534.791,1.966283
5536.719,1.967307
5538.647,1.964605
5540.576,1.964998
5542.504,1.964574
5544.433,1.964944
5546.361,1.964489
5548.29,1.961138
5550.219,1.959256
5552.147,1.959064
5554.076,1.960216
5556.004,1.963342
5557.933,1.965803
5559.861,1.965562
5561.79,1.96635
5563.718,1.969962
5565.646,1.97245
5567.575,1.976703
5569.503,1.980556
5571.432,1.98398
5573.36,1.98911
5575.289,1.991614
5577.218,1.994467
5579.146,1.99909
5581.074,2.00292
5583.003,2.007699
5584.932,2.011532
5586.86,2.014271
5588.789,2.014508
5590.717,2.015891
5592.646,2.013397
5594.574,2.014467
5596.502,2.015484
5598.431,2.007818
5600.359,2.001507
5602.288,2.000096
5604.216,1.996253
5606.145,1.992778
5608.073,1.98809
5610.002,1.984017
5611.931,1.979086
5613.859,1.971986
5615.788,1.966524
5617.716,1.966345
5619.645,1.964859
5621.573,1.959588
5623.501,1.952886
5625.43,1.946033
5627.358,1.94253
5629.287,1.939638
5631.215,1.932324
5633.144,1.929659
5635.072,1.927411
5637.001,1.926108
5638.93,1.923348
5640.858,1.917796
5642.786,1.912672
5644.715,1.905227
5646.644,1.900259
5648.572,1.891526
5650.5,1.884685
5652.429,1.878813
5654.357,1.87035
5656.286,1.86584
5658.214,1.864089
5660.143,1.858813
5662.071,1.853896
5664.0,1.855845
5665.929,1.857613
5667.857,1.857259
5669.785,1.86122
5671.714,1.864812
5673.643,1.86752
5675.571,1.867837
5677.5,1.867706
5679.428,1.872957
5681.356,1.875925
5683.285,1.879391
5685.213,1.883218
5687.142,1.884905
5689.07,1.887893
5690.999,1.891652
5692.927,1.894439
5694.856,1.89969
5696.784,1.906929
5698.713,1.912461
5700.642,1.917758
5702.57,1.922139
5704.499,1.925414
5706.427,1.933875
5708.355,1.938873
5710.284,1.944396
5712.212,1.950252
5714.141,1.952522
5716.069,1.951679
5717.998,1.952754
5719.926,1.952286
5721.855,1.948567
5723.783,1.940501
5725.712,1.930043
5727.641,1.919789
5729.569,1.911542
5731.497,1.904653
5733.426,1.901062
5735.354,1.897679
5737.283,1.896018
5739.211,1.894404
5741.14,1.890453
5743.068,1.887765
5744.997,1.884305
5746.925,1.880189
5748.854,1.874063
5750.782,1.870254
5752.711,1.865527
5754.639,1.864421
5756.568,1.864525
5758.496,1.863713
5760.425,1.862758
5762.354,1.860254
5764.282,1.85862
5766.21,1.857
5768.139,1.853606
5770.067,1.853024
5771.996,1.852147
5773.924,1.851485
5775.853,1.851987
5777.781,1.849071
5779.71,1.853028
5781.638,1.859075
5783.567,1.858196
5785.495,1.860027
5787.424,1.860204
5789.353,1.859209
5791.281,1.860683
5793.209,1.860274
5795.138,1.859991
5797.066,1.863398
5798.995,1.865933
5800.923,1.863802
5802.852,1.864526
5804.78,1.863744
5806.709,1.864767
5808.637,1.86678
5810.566,1.869953
5812.494,1.873179
5814.423,1.871501
5816.352,1.87188
5818.28,1.876078
5820.208,1.876308
5822.137,1.879509
5824.065,1.884573
5825.994,1.888596
5827.922,1.892722
5829.851,1.894875
5831.779,1.896989
5833.708,1.902163
5835.636,1.906042
5837.565,1.909148
5839.493,1.913208
5841.422,1.917447
5843.35,1.925181
5845.279,1.933286
5847.207,1.93913
5849.136,1.947246
5851.064,1.959427
5852.993,1.973864
5854.921,1.987682
5856.85,2.004321
5858.778,2.027902
5860.707,2.052992
5862.635,2.077175
5864.563,2.099642
5866.492,2.129947
5868.421,2.16139
5870.349,2.197055
5872.278,2.237273
5874.206,2.279471
5876.135,2.32279
5878.063,2.369416
5879.992,2.412718
5881.92,2.459614
5883.849,2.504808
5885.777,2.547449
5887.706,2.590527
5889.634,2.629469
5891.563,2.661254
5893.491,2.69293
5895.42,2.718492
5897.348,2.737849
5899.277,2.758987
5901.205,2.782573
5903.134,2.808453
5905.063,2.840803
5906.991,2.869034
5908.919,2.903448
5910.848,2.948356
5912.776,2.997643
5914.705,3.046882
5916.633,3.095844
5918.562,3.150005
5920.49,3.206331
5922.419,3.262369
5924.347,3.318275
5926.276,3.372086
5928.204,3.423458
5930.133,3.472175
5932.061,3.520383
5933.99,3.565131
5935.918,3.608343
5937.847,3.650102
5939.775,3.69456
5941.704,3.735648
5943.632,3.772567
5945.561,3.806704
5947.489,3.844671
5949.418,3.881732
5951.346,3.918983
5953.274,3.959462
5955.203,3.996593
5957.132,4.030011
5959.06,4.068235
5960.989,4.112936
5962.917,4.156323
5964.846,4.198567
5966.774,4.243189
5968.703,4.2851
5970.631,4.326973
5972.56,4.369754
5974.488,4.411169
5976.417,4.450377
5978.345,4.486575
5980.273,4.521624
5982.202,4.560162
5984.131,4.595499
5986.059,4.631753
5987.988,4.667092
5989.916,4.703174
5991.845,4.732907
5993.773,4.765353
5995.702,4.798079
5997.63,4.832245
5999.559,4.864213
6001.487,4.893295
6003.416,4.918227
6005.344,4.948684
6007.272,4.977276
6009.201,5.009576
6011.13,5.036386
6013.058,5.065916
6014.986,5.096652
6016.915,5.124517
6018.844,5.1524
6020.772,5.180668
6022.701,5.203371
6024.629,5.229174
6026.558,5.253733
6028.486,5.280276
6030.415,5.30259
6032.343,5.327664
6034.271,5.348797
6036.2,5.367691
6038.129,5.39089
6040.057,5.412345
6041.985,5.431049
6043.914,5.450338
6045.843,5.468436
6047.771,5.488177
6049.7,5.507535
6051.628,5.525817
6053.557,5.541412
6055.485,5.562209
6057.414,5.581224
6059.342,5.597336
6061.271,5.609818
6063.199,5.625352
6065.128,5.640446
6067.056,5.657517
6068.984,5.674763
6070.913,5.686176
6072.842,5.696461
6074.77,5.712778
6076.698,5.726427
6078.627,5.737185
6080.556,5.747546
6082.484,5.76174
6084.413,5.771451
6086.341,5.78356
6088.27,5.796172
6090.198,5.802953
6092.126,5.808589
6094.055,5.814507
6095.983,5.815067
6097.912,5.818475
6099.841,5.816014
6101.769,5.814196
6103.697,5.815062
6105.626,5.819781
6107.555,5.825409
6109.483,5.834919
6111.412,5.844876
6113.34,5.858385
6115.269,5.872605
6117.197,5.886816
6119.125,5.89742
6121.054,5.91526
6122.982,5.934578
6124.911,5.952247
6126.84,5.964643
6128.768,5.977871
6130.696,5.99303
6132.625,6.009412
6134.554,6.02497
6136.482,6.040091
6138.41,6.052015
6140.339,6.066458
6142.268,6.079918
6144.196,6.092218
6146.125,6.10213
6148.053,6.117836
6149.981,6.130922
6151.91,6.141791
6153.839,6.152151
6155.767,6.167474
6157.695,6.180014
6159.624,6.189353
6161.553,6.19903
6163.481,6.210896
6165.409,6.221106
6167.338,6.232349
6169.267,6.243197
6171.195,6.256996
6173.124,6.267782
6175.052,6.28119
6176.98,6.284374
6178.909,6.286281
6180.837,6.293574
6182.766,6.307423
6184.694,6.315275
6186.623,6.322499
6188.552,6.327164
6190.48,6.335954
6192.408,6.341479
6194.337,6.34715
6196.266,6.357233
6198.194,6.364135
6200.123,6.366761
6202.051,6.37247
6203.979,6.379281
6205.908,6.387316
6207.836,6.392897
6209.765,6.397999
6211.693,6.40134
6213.622,6.406843
6215.551,6.414314
6217.479,6.42528
6219.407,6.430162
6221.336,6.434922
6223.265,6.438167
6225.193,6.445532
6227.121,6.451567
6229.05,6.457115
6230.979,6.458364
6232.907,6.460019
6234.835,6.463333
6236.764,6.469042
6238.692,6.47014
6240.621,6.472018
6242.549,6.475029
6244.478,6.477666
6246.406,6.477182
6248.335,6.48287
6250.264,6.486473
6252.192,6.490602
6254.12,6.486995
6256.049,6.490707
6257.978,6.495097
6259.906,6.499544
6261.834,6.501001
6263.763,6.502874
6265.691,6.501825
6267.62,6.5052
6269.548,6.506042
6271.477,6.511141
6273.405,6.511892
6275.334,6.510593
6277.263,6.516073
6279.191,6.521334
6281.119,6.523278
6283.048,6.52636
6284.977,6.528803
6286.905,6.530907
6288.833,6.527159
6290.762,6.525056
6292.69,6.526564
6294.619,6.532
6296.547,6.534012
6298.476,6.534892
6300.404,6.533633
6302.333,6.53681
6304.262,6.539223
6306.19,6.537153
6308.118,6.538318
6310.047,6.541129
6311.976,6.53749
6313.904,6.537801
6315.832,6.540334
6317.761,6.540817
6319.689,6.534903
6321.618,6.534316
6323.546,6.532981
6325.475,6.529007
6327.403,6.525267
6329.332,6.522734
6331.26,6.51842
6333.189,6.519575
6335.117,6.51686
6337.046,6.513348
6338.975,6.508911
6340.903,6.504129
6342.831,6.501357
6344.76,6.497637
6346.688,6.491677
6348.617,6.485363
6350.545,6.480253
6352.474,6.476116
6354.402,6.469228
6356.331,6.464945
6358.259,6.457718
6360.188,6.451167
6362.116,6.444357
6364.045,6.433311
6365.974,6.419529
6367.902,6.405975
6369.83,6.392525
6371.759,6.37949
6373.688,6.369719
6375.616,6.362308
6377.544,6.350263
6379.473,6.342717
6381.401,6.335281
6383.33,6.333385
6385.258,6.334076
6387.187,6.330248
6389.115,6.325006
6391.044,6.325659
6392.973,6.317324
6394.901,6.312501
6396.829,6.309629
6398.758,6.29926
6400.687,6.29149
6402.615,6.282744
6404.543,6.267729
6406.472,6.255917
6408.4,6.239279
6410.329,6.221262
6412.257,6.204154
6414.186,6.189447
6416.114,6.172742
6418.043,6.165753
6419.971,6.155917
6421.9,6.144423
6423.828,6.134734
6425.757,6.129626
6427.686,6.129561
6429.614,6.123621
6431.542,6.112363
6433.471,6.107624
6435.399,6.097589
6437.328,6.085773
6439.256,6.067673
6441.185,6.055248
6443.113,6.040736
6445.042,6.021434
6446.97,6.000234
6448.898,5.978578
6450.827,5.952434
6452.756,5.929254
6454.685,5.908543
6456.613,5.888473
6458.541,5.861299
6460.47,5.827124
6462.398,5.787734
6464.327,5.740986
6466.255,5.691348
6468.184,5.632282
6470.112,5.569476
6472.041,5.506424
6473.969,5.434968
6475.897,5.373541
6477.826,5.32302
6479.755,5.279573
6481.684,5.25667
6483.612,5.248264
6485.54,5.246732
6487.469,5.258123
6489.397,5.274171
6491.326,5.293195
6493.254,5.308393
6495.183,5.326169
6497.111,5.343894
6499.04,5.364988
6500.968,5.386536
6502.896,5.407554
6504.825,5.422191
6506.754,5.434035
6508.682,5.448033
6510.61,5.46286
6512.539,5.476001
6514.468,5.487871
6516.396,5.503339
6518.325,5.513065
6520.253,5.520975
6522.182,5.535004
6524.11,5.546373
6526.039,5.553083
6527.967,5.562375
6529.896,5.572068
6531.824,5.577379
6533.753,5.583832
6535.681,5.590295
6537.609,5.597118
6539.538,5.600763
6541.467,5.608061
6543.396,5.617182
6545.324,5.61982
6547.252,5.624774
6549.181,5.632111
6551.109,5.635499
6553.038,5.636852
6554.966,5.639863
6556.895,5.648439
6558.823,5.653663
6560.752,5.659321
6562.68,5.667696
6564.608,5.674902
6566.537,5.680896
6568.466,5.689939
6570.394,5.696832
6572.323,5.703386
6574.251,5.710227
6576.18,5.714061
6578.108,5.720189
6580.037,5.727805
6581.965,5.730698
6583.894,5.733742
6585.822,5.737244
6587.751,5.741228
6589.679,5.745116
6591.607,5.748598
6593.536,5.753534
6595.465,5.753688
6597.393,5.751802
6599.321,5.754469
6601.25,5.754192
6603.179,5.75268
6605.107,5.752156
6607.036,5.753186
6608.964,5.751324
6610.893,5.753531
6612.821,5.750332
6614.75,5.749224
6616.678,5.747627
6618.606,5.747644
6620.535,5.742043
6622.464,5.738903
6624.392,5.734129
6626.32,5.730633
6628.249,5.726148
6630.178,5.725949
6632.106,5.725853
6634.035,5.722242
6635.963,5.711308
6637.892,5.701819
6639.82,5.700158
6641.749,5.699057
6643.677,5.692635
6645.605,5.684404
6647.534,5.677837
6649.463,5.674826
6651.391,5.66437
6653.319,5.660308
6655.248,5.654224
6657.177,5.643802
6659.105,5.633989
6661.034,5.630626
6662.962,5.624565
6664.891,5.618922
6666.819,5.610489
6668.748,5.604288
6670.676,5.596437
6672.604,5.58468
6674.533,5.57503
6676.462,5.568102
6678.39,5.555605
6680.318,5.547391
6682.247,5.542563
6684.176,5.531199
6686.104,5.518999
6688.032,5.508408
6689.961,5.494781
6691.89,5.486772
6693.818,5.480081
6695.747,5.469161
6697.675,5.453695
6699.604,5.440657
6701.532,5.429776
6703.46,5.417692
6705.389,5.406011
6707.317,5.394097
6709.246,5.377459
6711.175,5.365353
6713.103,5.353097
6715.031,5.341504
6716.96,5.330024
6718.889,5.31508
6720.817,5.298273
6722.746,5.284424
6724.674,5.271711
6726.603,5.256909
6728.531,5.240891
6730.459,5.231628
6732.388,5.219381
6734.316,5.211039
6736.245,5.20102
6738.174,5.186388
6740.102,5.170213
6742.03,5.160061
6743.959,5.145939
6745.888,5.129354
6747.816,5.11932
6749.745,5.111097
6751.673,5.101896
6753.602,5.087712
6755.53,5.068061
6757.458,5.055634
6759.387,5.049295
6761.315,5.036952
6763.244,5.018647
6765.173,5.003931
6767.101,4.988808
6769.029,4.975201
6770.958,4.959842
6772.887,4.943683
6774.815,4.933272
6776.743,4.916842
6778.672,4.896272
6780.601,4.8775
6782.529,4.856211
6784.458,4.836031
6786.386,4.816987
6788.314,4.795036
6790.243,4.773543
6792.171,4.750723
6794.1,4.724716
6796.028,4.701748
6797.957,4.678555
6799.886,4.652684
6801.814,4.629804
6803.742,4.609863
6805.671,4.585459
6807.6,4.558932
6809.528,4.539599
6811.457,4.517984
6813.385,4.499521
6815.313,4.477769
6817.242,4.454507
6819.17,4.427919
6821.099,4.405587
6823.027,4.379995
6824.956,4.353011
6826.885,4.328745
6828.813,4.299591
6830.741,4.276551
6832.67,4.263121
6834.599,4.24797
6836.527,4.233684
6838.455,4.219253
6840.384,4.208271
6842.313,4.197707
6844.241,4.179946
6846.169,4.169145
6848.098,4.159832
6850.026,4.151294
6851.955,4.138385
6853.884,4.121874
6855.812,4.107125
6857.74,4.096425
6859.669,4.084774
6861.598,4.072111
6863.526,4.057456
6865.454,4.047637
6867.383,4.034697
6869.312,4.020044
6871.24,4.008039
6873.168,3.995247
6875.097,3.976928
6877.025,3.965218
6878.954,3.950441
6880.882,3.932497
6882.811,3.913353
6884.739,3.893794
6886.668,3.877997
6888.597,3.863452
6890.525,3.845028
6892.453,3.830268
6894.382,3.81447
6896.311,3.795349
6898.239,3.779563
6900.167,3.764241
6902.096,3.749935
6904.024,3.742019
6905.953,3.733264
6907.881,3.716214
6909.81,3.703155
6911.738,3.694014
6913.667,3.677145
6915.596,3.664475
6917.524,3.652747
6919.452,3.636104
6921.381,3.619511
6923.31,3.601511
6925.238,3.584532
6927.166,3.569275
6929.095,3.549517
6931.023,3.534054
6932.952,3.508627
6934.88,3.48907
6936.809,3.467986
6938.737,3.442844
6940.666,3.4223
6942.594,3.399701
6944.523,3.383075
6946.451,3.3672
6948.38,3.350777
6950.309,3.34027
6952.237,3.330992
6954.165,3.329438
6956.094,3.330025
6958.022,3.325505
6959.951,3.32145
6961.879,3.325891
6963.808,3.325712
6965.736,3.323283
6967.665,3.32451
6969.593,3.321292
6971.521,3.316695
6973.45,3.320574
6975.379,3.320035
6977.308,3.318542
6979.236,3.319405
6981.164,3.32214
6983.093,3.317521
6985.021,3.310181
6986.95,3.300378
6988.878,3.299103
6990.807,3.296351
6992.735,3.288059
6994.664,3.276538
6996.592,3.276218
6998.521,3.269351
7000.449,3.260489
7002.378,3.253519
7004.307,3.241706
7006.235,3.226211
7008.163,3.212722
7010.092,3.210772
7012.021,3.205714
7013.949,3.194264
7015.877,3.179713
7017.806,3.168747
7019.734,3.162699
7021.663,3.15892
7023.591,3.154678
7025.52,3.151311
7027.448,3.154923
7029.377,3.154297
7031.305,3.151006
7033.234,3.151798
7035.162,3.151968
7037.091,3.157549
7039.02,3.158675
7040.948,3.154594
7042.876,3.148498
7044.805,3.138343
7046.733,3.126854
7048.662,3.11271
7050.59,3.097321
7052.519,3.080188
7054.447,3.052945
7056.376,3.020704
7058.304,2.995775
7060.232,2.983646
7062.161,2.979092
7064.09,2.97312
7066.019,2.97943
7067.947,2.995593
7069.875,3.023031
7071.804,3.052834
7073.732,3.084405
7075.661,3.117714
7077.589,3.149125
7079.518,3.180433
7081.446,3.212109
7083.375,3.233243
7085.303,3.25735
7087.231,3.280785
7089.16,3.296175
7091.089,3.313626
7093.018,3.335316
7094.946,3.353901
7096.874,3.367414
7098.803,3.38526
7100.731,3.407337
7102.66,3.424213
7104.588,3.449696
7106.517,3.475555
7108.445,3.501747
7110.374,3.520773
7112.302,3.544732
7114.23,3.570059
7116.159,3.600732
7118.088,3.627133
7120.016,3.642571
7121.944,3.658315
7123.873,3.672412
7125.802,3.686572
7127.73,3.696121
7129.659,3.701194
7131.587,3.697259
7133.516,3.695779
7135.444,3.689602
7137.373,3.674228
7139.301,3.652725
7141.229,3.636204
7143.158,3.617787
7145.087,3.590472
7147.015,3.558825
7148.943,3.531655
7150.872,3.488466
7152.801,3.435893
7154.729,3.37759
7156.658,3.309545
7158.586,3.233687
7160.515,3.151904
7162.443,3.056244
7164.372,2.976319
7166.3,2.911109
7168.229,2.84856
7170.157,2.797832
7172.086,2.77784
7174.014,2.777555
7175.942,2.792605
7177.871,2.821599
7179.8,2.862951
7181.729,2.920837
7183.657,2.969794
7185.585,3.016639
7187.514,3.061538
7189.442,3.115485
7191.371,3.169494
7193.299,3.229788
7195.228,3.289723
7197.156,3.342344
7199.085,3.395193
7201.013,3.45652
7202.941,3.52204
7204.87,3.585282
7206.799,3.634751
7208.727,3.691921
7210.655,3.743262
7212.584,3.796556
7214.513,3.844219
7216.441,3.89684
7218.37,3.95557
7220.298,4.010697
7222.227,4.053869
7224.155,4.112281
7226.083,4.176876
7228.012,4.227935
7229.94,4.288363
7231.869,4.352731
7233.798,4.390564
7235.726,4.438154
7237.654,4.486859
7239.583,4.542244
7241.512,4.597186
7243.44,4.640479
7245.369,4.678116
7247.297,4.722758
7249.226,4.764786
7251.154,4.82307
7253.083,4.879879
7255.011,4.922575
7256.939,4.964678
7258.868,5.015256
7260.797,5.069489
7262.725,5.122951
7264.653,5.170768
7266.582,5.218201
7268.511,5.263658
7270.439,5.311161
7272.368,5.360397
7274.296,5.408679
7276.225,5.452821
7278.153,5.499764
7280.082,5.546759
7282.01,5.596104
7283.938,5.643006
7285.867,5.69495
7287.796,5.743582
7289.724,5.781488
7291.652,5.827462
7293.581,5.886242
7295.51,5.92051
7297.438,5.959299
7299.366,6.005474
7301.295,6.047724
7303.224,6.093935
7305.152,6.148998
7307.081,6.193675
7309.009,6.23745
7310.938,6.288501
7312.866,6.321435
7314.794,6.358004
7316.723,6.393087
7318.651,6.431006
7320.58,6.47276
7322.509,6.513364
7324.437,6.548332
7326.365,6.588082
7328.294,6.617729
7330.223,6.628578
7332.151,6.648679
7334.08,6.673695
7336.008,6.702449
7337.937,6.734856
7339.865,6.758578
7341.793,6.767902
7343.722,6.782373
7345.65,6.794467
7347.579,6.819236
7349.508,6.840065
7351.436,6.859399
7353.364,6.886465
7355.293,6.917171
7357.222,6.926714
7359.15,6.947835
7361.079,6.976815
7363.007,7.003545
7364.936,7.02388
7366.864,7.05125
7368.792,7.071609
7370.721,7.08778
7372.649,7.103025
7374.578,7.13462
7376.507,7.154515
7378.435,7.172321
7380.363,7.195882
7382.292,7.211714
7384.221,7.221994
7386.149,7.234964
7388.077,7.252959
7390.006,7.264766
7391.935,7.276071
7393.863,7.292674
7395.792,7.300007
7397.72,7.307807
7399.648,7.314834
7401.577,7.326812
7403.505,7.335899
7405.434,7.344043
7407.362,7.346699
7409.291,7.349605
7411.22,7.356018
7413.148,7.363729
7415.076,7.373711
7417.005,7.379447
7418.934,7.386057
7420.862,7.394169
7422.791,7.393817
7424.719,7.395227
7426.647,7.399786
7428.576,7.405728
7430.504,7.415905
7432.433,7.416079
7434.361,7.415642
7436.29,7.423705
7438.219,7.425527
7440.147,7.43036
7442.075,7.435995
7444.004,7.442102
7445.933,7.438514
7447.861,7.439473
7449.789,7.450987
7451.718,7.454767
7453.646,7.454754
7455.575,7.459475
7457.503,7.454474
7459.432,7.460043
7461.36,7.46467
7463.289,7.468349
7465.218,7.471521
7467.146,7.473251
7469.074,7.474576
7471.003,7.482502
7472.932,7.482195
7474.86,7.477397
7476.788,7.476781
7478.717,7.48541
7480.646,7.48687
7482.574,7.484075
7484.502,7.487462
7486.431,7.491263
7488.359,7.487942
7490.288,7.485767
7492.216,7.480481
7494.145,7.48036
7496.073,7.486411
7498.002,7.486237
7499.931,7.479301
7501.859,7.477209
7503.787,7.474733
7505.716,7.471527
7507.645,7.471551
7509.573,7.474376
7511.501,7.475875
7513.43,7.473777
7515.358,7.473491
7517.287,7.469602
7519.215,7.474171
7521.144,7.477958
7523.072,7.471017
7525.001,7.469025
7526.93,7.468812
7528.858,7.465377
7530.786,7.463326
7532.715,7.46143
7534.644,7.462711
7536.572,7.460023
7538.5,7.451742
7540.429,7.44764
7542.357,7.443956
7544.286,7.442881
7546.214,7.440706
7548.143,7.443787
7550.071,7.439723
7552.0,7.427131
7553.928,7.425377
7555.857,7.424977
7557.785,7.42223
7559.714,7.418499
7561.643,7.4177
7563.571,7.411321
7565.499,7.409315
7567.428,7.406342
7569.356,7.401546
7571.285,7.397831
7573.213,7.394838
7575.142,7.390629
7577.07,7.385835
7578.999,7.380453
7580.927,7.372605
7582.855,7.374863
7584.784,7.37661
7586.713,7.369962
7588.642,7.362486
7590.57,7.36344
7592.498,7.36253
7594.427,7.361612
7596.355,7.357676
7598.284,7.347643
7600.212,7.337931
7602.141,7.327289
7604.069,7.322289
7605.998,7.318958
7607.926,7.320584
7609.854,7.313712
7611.783,7.305032
7613.712,7.302807
7615.641,7.298583
7617.569,7.29179
7619.497,7.279126
7621.426,7.269629
7623.354,7.266066
7625.283,7.264893
7627.211,7.255679
7629.14,7.241718
7631.068,7.230871
7632.997,7.227857
7634.925,7.229548
7636.854,7.216088
7638.782,7.206532
7640.711,7.202181
7642.639,7.196091
7644.568,7.19109
7646.496,7.17777
7648.425,7.174416
7650.354,7.174826
7652.282,7.167703
7654.21,7.154855
7656.139,7.146846
7658.067,7.141806
7659.996,7.144949
7661.924,7.139949
7663.853,7.122155
7665.781,7.123055
7667.71,7.121523
7669.638,7.115801
7671.566,7.112466
7673.495,7.100358
7675.424,7.093711
7677.353,7.093558
7679.281,7.086708
7681.209,7.085728
7683.138,7.081457
7685.066,7.077478
7686.995,7.075078
7688.923,7.061492
7690.852,7.055458
7692.78,7.06078
7694.709,7.051065
7696.637,7.039639
7698.565,7.044592
7700.494,7.044785
7702.423,7.044987
7704.352,7.041628
7706.28,7.031699
7708.208,7.025483
7710.137,7.019193
7712.065,7.019669
7713.994,7.011694
7715.922,7.004883
7717.851,6.994167
7719.779,6.985669
7721.708,6.983259
7723.636,6.988638
7725.564,6.982969
7727.493,6.970807
7729.422,6.961192
7731.35,6.961698
7733.279,6.958112
7735.207,6.957866
7737.136,6.951674
7739.064,6.943502
7740.993,6.938566
7742.921,6.939699
7744.85,6.936391
7746.778,6.931025
7748.707,6.920761
7750.635,6.914259
7752.563,6.905446
7754.492,6.901649
7756.421,6.900851
7758.349,6.88908
7760.277,6.882268
7762.206,6.878491
7764.135,6.874479
7766.063,6.870826
7767.992,6.868979
7769.92,6.862043
7771.849,6.848893
7773.777,6.839363
7775.706,6.8319
7777.634,6.826827
7779.563,6.83205
7781.491,6.824807
7783.42,6.823314
7785.348,6.823586
7787.276,6.816248
7789.205,6.817713
7791.134,6.814554
7793.063,6.803908
7794.991,6.80213
7796.919,6.797481
7798.848,6.786046
7800.776,6.783398
7802.705,6.781295
7804.633,6.771947
7806.562,6.764838
7808.49,6.765499
7810.419,6.757669
7812.347,6.748689
7814.275,6.738087
7816.204,6.73312
7818.133,6.724483
7820.061,6.718394
7821.989,6.717159
7823.918,6.712464
7825.847,6.706304
7827.775,6.699418
7829.704,6.696468
7831.632,6.685077
7833.561,6.682139
7835.489,6.677037
7837.417,6.663912
7839.346,6.658985
7841.274,6.654772
7843.203,6.645647
7845.132,6.635334
7847.06,6.626728
7848.988,6.620926
7850.917,6.615701
7852.846,6.602956
7854.774,6.587836
7856.703,6.58809
7858.631,6.580358
7860.56,6.570975
7862.488,6.565823
7864.417,6.553908
7866.345,6.536192
7868.273,6.518196
7870.202,6.513375
7872.131,6.510764
7874.059,6.505643
7875.987,6.486621
7877.916,6.472144
7879.845,6.470439
7881.773,6.464026
7883.702,6.443709
7885.63,6.430336
7887.559,6.423443
7889.487,6.406271
7891.416,6.38568
7893.344,6.372438
7895.272,6.35904
7897.201,6.352282
7899.13,6.336815
7901.058,6.326307
7902.986,6.309907
7904.915,6.307492
7906.844,6.294452
7908.772,6.277951
7910.7,6.270566
7912.629,6.263493
7914.558,6.250419
7916.486,6.236538
7918.415,6.213512
7920.343,6.196308
7922.271,6.186491
7924.2,6.172959
7926.128,6.161751
7928.057,6.149936
7929.985,6.127624
7931.914,6.107972
7933.843,6.09005
7935.771,6.076426
7937.699,6.068041
7939.628,6.051197
7941.557,6.037783
7943.485,6.018692
7945.414,6.005014
7947.342,5.986842
7949.271,5.963902
7951.199,5.954305
7953.127,5.938052
7955.056,5.917015
7956.984,5.897178
7958.913,5.881578
7960.842,5.867834
7962.77,5.852014
7964.698,5.829629
7966.627,5.802437
7968.556,5.783848
7970.484,5.765293
7972.413,5.739415
7974.341,5.720066
7976.27,5.711136
7978.198,5.691749
7980.126,5.671021
7982.055,5.65975
7983.983,5.638087
7985.912,5.616901
7987.841,5.591325
7989.769,5.569382
7991.697,5.551795
7993.626,5.528327
7995.555,5.500185
7997.483,5.482178
7999.411,5.466003
8001.34,5.445837
8003.269,5.41434
8005.197,5.390261
8007.125,5.374428
8009.054,5.356483
8010.982,5.3358
8012.911,5.311023
8014.839,5.282032
8016.768,5.259094
8018.696,5.249337
8020.625,5.218729
8022.554,5.186592
8024.482,5.162008
8026.41,5.143347
8028.339,5.120814
8030.268,5.100221
8032.196,5.074825
8034.125,5.04846
8036.053,5.016288
8037.981,4.978156
8039.91,4.956471
8041.838,4.937404
8043.767,4.908497
8045.695,4.885479
8047.624,4.858424
8049.553,4.826088
8051.481,4.801846
8053.409,4.769684
8055.338,4.743154
8057.267,4.72199
8059.195,4.686968
8061.124,4.662897
8063.052,4.640855
8064.98,4.602598
8066.909,4.579733
8068.837,4.556655
8070.766,4.528503
8072.694,4.498432
8074.623,4.472488
8076.552,4.438643
8078.48,4.412915
8080.408,4.386714
8082.337,4.353516
8084.266,4.322266
8086.194,4.295022
8088.122,4.268332
8090.051,4.239998
8091.979,4.200756
8093.908,4.163257
8095.836,4.140158
8097.765,4.110089
8099.693,4.07333
8101.622,4.044059
8103.551,4.015288
8105.479,3.990722
8107.407,3.956366
8109.336,3.921428
8111.265,3.885378
8113.192,3.84946
8115.121,3.8252
8117.05,3.789914
8118.979,3.750947
8120.907,3.712653
8122.835,3.683373
8124.764,3.656038
8126.692,3.617149
8128.621,3.581784
8130.55,3.541003
8132.478,3.508556
8134.406,3.474396
8136.335,3.439595
8138.264,3.416488
8140.191,3.393554
8142.12,3.356508
8144.049,3.320804
8145.978,3.288265
8147.906,3.251667
8149.834,3.209386
8151.763,3.185078
8153.691,3.160236
8155.62,3.130484
8157.548,3.090592
8159.477,3.057427
8161.405,3.026924
8163.334,2.997392
8165.263,2.966633
8167.19,2.935676
8169.119,2.903995
8171.048,2.875872
8172.977,2.853945
8174.905,2.823735
8176.833,2.796121
8178.762,2.770991
8180.69,2.748588
8182.619,2.711036
8184.547,2.678721
8186.476,2.664443
8188.404,2.651517
8190.333,2.628436
8192.262,2.597454
8194.189,2.580377
8196.118,2.576072
8198.047,2.572938
8199.976,2.563263
8201.903,2.54438
8203.832,2.535542
8205.761,2.526902
8207.689,2.51496
8209.618,2.505135
8211.546,2.498907
8213.475,2.493427
8215.403,2.487184
8217.332,2.481116
8219.261,2.473966
8221.188,2.465991
8223.117,2.469518
8225.046,2.474569
8226.975,2.472773
8228.902,2.473313
8230.831,2.477813
8232.76,2.472508
8234.688,2.467728
8236.617,2.474726
8238.545,2.478154
8240.474,2.475309
8242.402,2.477893
8244.331,2.488694
8246.259,2.492814
8248.188,2.49119
8250.116,2.49432
8252.045,2.500841
8253.974,2.505512
8255.901,2.504043
8257.83,2.50861
8259.759,2.513941
8261.688,2.524271
8263.616,2.535517
8265.544,2.542087
8267.473,2.548053
8269.401,2.555591
8271.33,2.580888
8273.258,2.598599
8275.187,2.603778
8277.115,2.612939
8279.044,2.614998
8280.973,2.625041
8282.9,2.644209
8284.829,2.664542
8286.758,2.680516
8288.687,2.7024
8290.614,2.716135
8292.543,2.730604
8294.472,2.741367
8296.4,2.764003
8298.329,2.782168
8300.257,2.799553
8302.186,2.818619
8304.114,2.832673
8306.043,2.852014
8307.972,2.880474
8309.899,2.888115
8311.828,2.897273
8313.757,2.916475
8315.686,2.947079
8317.613,2.977517
8319.542,2.992494
8321.471,3.005347
8323.399,3.030114
8325.328,3.05036
8327.256,3.063332
8329.185,3.080348
8331.113,3.104422
8333.042,3.121542
8334.97,3.146863
8336.898,3.179037
8338.827,3.196603
8340.756,3.221476
8342.685,3.240662
8344.612,3.264701
8346.541,3.302654
8348.47,3.332816
8350.398,3.352305
8352.327,3.379868
8354.255,3.402224
8356.184,3.434354
8358.112,3.465462
8360.041,3.4922
8361.969,3.513165
8363.897,3.530104
8365.826,3.560183
8367.755,3.590008
8369.684,3.613227
8371.611,3.631587
8373.54,3.659082
8375.469,3.683578
8377.397,3.710406
8379.325,3.739456
8381.254,3.774712
8383.183,3.79386
8385.111,3.801772
8387.04,3.813127
8388.968,3.839545
8390.896,3.865117
8392.825,3.886199
8394.754,3.897201
8396.683,3.912902
8398.61,3.932811
8400.539,3.939471
8402.468,3.943523
8404.396,3.952206
8406.324,3.968808
8408.253,3.983959
8410.182,3.982086
8412.11,3.972443
8414.039,3.982265
8415.967,3.997543
8417.896,3.992128
8419.824,3.979945
8421.753,3.993403
8423.681,4.010535
8425.609,4.030991
8427.538,4.055291
8429.467,4.074751
8431.396,4.079762
8433.323,4.094523
8435.252,4.129803
8437.181,4.158379
8439.109,4.187434
8441.037,4.226592
8442.966,4.258765
8444.895,4.282785
8446.823,4.310001
8448.752,4.34428
8450.68,4.383337
8452.608,4.427689
8454.537,4.447592
8456.466,4.472248
8458.395,4.515681
8460.322,4.555781
8462.251,4.57603
8464.18,4.598366
8466.108,4.6183
8468.036,4.641881
8469.965,4.680866
8471.894,4.712951
8473.822,4.734066
8475.751,4.765371
8477.679,4.791143
8479.607,4.808767
8481.536,4.841499
8483.465,4.884222
8485.393,4.910189
8487.321,4.935246
8489.25,4.961795
8491.179,4.986702
8493.107,5.020437
8495.035,5.045657
8496.964,5.055769
8498.893,5.068964
8500.821,5.09715
8502.75,5.12358
8504.678,5.14685
8506.606,5.158911
8508.535,5.175015
8510.464,5.184233
8512.392,5.188105
8514.32,5.190268
8516.249,5.203838
8518.178,5.221828
8520.106,5.233749
8522.034,5.24653
8523.963,5.264531
8525.892,5.287437
8527.82,5.301737
8529.748,5.310215
8531.677,5.316248
8533.605,5.314477
8535.534,5.320416
8537.463,5.328564
8539.391,5.314937
8541.319,5.309994
8543.248,5.29784
8545.177,5.278836
8547.105,5.258325
8549.033,5.239335
8550.962,5.213128
8552.891,5.179185
8554.819,5.152771
8556.747,5.127288
8558.676,5.110612
8560.604,5.096499
8562.533,5.076134
8564.462,5.068623
8566.39,5.08803
8568.318,5.118073
8570.247,5.131386
8572.176,5.15005
8574.104,5.181342
8576.032,5.218694
8577.961,5.266328
8579.89,5.306499
8581.818,5.339152
8583.746,5.372294
8585.675,5.416648
8587.604,5.464172
8589.532,5.506261
8591.461,5.55167
8593.389,5.59129
8595.317,5.639169
8597.246,5.695248
8599.175,5.745919
8601.103,5.799104
8603.031,5.848282
8604.96,5.896407
8606.889,5.939011
8608.817,5.990497
8610.745,6.043668
8612.674,6.079959
8614.603,6.130097
8616.531,6.17587
8618.459,6.228141
8620.388,6.278499
8622.316,6.317209
8624.245,6.365245
8626.174,6.408816
8628.102,6.44264
8630.03,6.480106
8631.959,6.515977
8633.888,6.549341
8635.816,6.587084
8637.744,6.625268
8639.673,6.654791
8641.602,6.696164
8643.53,6.736087
8645.458,6.769007
8647.387,6.802658
8649.315,6.817838
8651.244,6.840793
8653.173,6.871179
8655.101,6.889453
8657.029,6.928245
8658.958,6.958057
8660.887,6.976372
8662.814,7.006469
8664.743,7.01628
8666.672,7.028466
8668.601,7.064822
8670.529,7.094651
8672.457,7.11551
8674.386,7.130417
8676.314,7.149002
8678.243,7.170543
8680.172,7.182851
8682.1,7.201407
8684.028,7.226591
8685.957,7.24028
8687.886,7.265809
8689.813,7.302847
8691.742,7.329003
8693.671,7.350689
8695.6,7.37392
8697.528,7.391713
8699.456,7.41052
8701.385,7.432218
8703.313,7.462876
8705.242,7.493929
8707.17,7.521179
8709.099,7.550253
8711.027,7.580899
8712.956,7.598649
8714.885,7.618872
8716.813,7.648818
8718.741,7.67474
8720.67,7.708871
8722.599,7.728306
8724.527,7.741553
8726.455,7.774364
8728.384,7.801461
8730.313,7.829722
8732.241,7.854467
8734.169,7.884178
8736.098,7.905675
8738.026,7.93152
8739.955,7.954014
8741.884,7.966959
8743.812,7.986228
8745.74,8.016465
8747.669,8.047511
8749.598,8.061293
8751.525,8.08492
8753.454,8.103141
8755.383,8.115804
8757.312,8.138216
8759.24,8.1633
8761.168,8.18347
8763.097,8.199291
8765.025,8.208995
8766.954,8.224701
8768.882,8.236294
8770.811,8.260098
8772.739,8.281032
8774.668,8.29722
8776.597,8.312503
8778.524,8.324877
8780.453,8.343222
8782.382,8.346224
8784.311,8.361641
8786.239,8.375844
8788.167,8.382631
8790.096,8.39927
8792.024,8.413439
8793.953,8.42696
8795.881,8.433221
8797.81,8.43223
8799.738,8.445411
8801.667,8.457271
8803.596,8.460272
8805.523,8.477818
8807.452,8.489698
8809.381,8.488845
8811.31,8.502714
8813.237,8.509705
8815.166,8.525039
8817.095,8.531981
8819.023,8.523169
8820.952,8.534644
8822.88,8.549294
8824.809,8.547013
8826.737,8.547554
8828.666,8.556804
8830.595,8.561282
8832.522,8.574786
8834.451,8.58918
8836.38,8.591961
8838.309,8.58435
8840.236,8.587723
8842.165,8.605857
8844.094,8.611326
8846.022,8.602238
8847.951,8.596149
8849.879,8.601728
8851.808,8.602676
8853.736,8.601877
8855.665,8.608106
8857.593,8.615225
8859.521,8.611657
8861.45,8.613608
8863.379,8.622312
8865.308,8.649382
8867.235,8.657416
8869.164,8.646483
8871.093,8.643552
8873.021,8.63663
8874.95,8.642936
8876.878,8.64804
8878.807,8.64305
8880.735,8.640116
8882.664,8.646166
8884.592,8.649303
8886.521,8.648303
8888.449,8.649241
8890.378,8.645256
8892.307,8.655873
8894.234,8.652136
8896.163,8.64761
8898.092,8.656275
8900.021,8.654346
8901.948,8.643622
8903.877,8.639203
8905.806,8.651714
8907.734,8.655028
8909.663,8.644713
8911.591,8.632631
8913.52,8.6398
8915.448,8.647108
8917.377,8.644582
8919.306,8.646352
8921.233,8.648523
8923.162,8.647614
8925.091,8.647131
8927.02,8.650915
8928.947,8.649589
8930.876,8.64326
8932.805,8.646268
8934.733,8.644232
8936.662,8.639121
8938.59,8.637512
8940.519,8.639907
8942.447,8.64005
8944.376,8.646827
8946.304,8.650912
8948.232,8.643591
8950.161,8.641841
8952.09,8.648285
8954.019,8.654666
8955.946,8.652842
8957.875,8.633867
8959.804,8.643065
8961.732,8.653937
8963.661,8.645163
8965.589,8.646117
8967.518,8.643098
8969.446,8.644865
8971.375,8.654225
8973.303,8.650786
8975.231,8.646009
8977.16,8.651382
8979.089,8.663168
8981.018,8.668394
8982.945,8.660197
8984.874,8.655145
8986.803,8.657248
8988.731,8.660803
8990.659,8.664011
8992.588,8.66241
8994.517,8.662144
8996.445,8.678117
8998.374,8.683692
9000.302,8.671647
9002.23,8.674054
9004.159,8.692947
9006.088,8.692865
9008.017,8.693047
9009.944,8.69348
9011.873,8.693385
9013.802,8.699209
9015.73,8.700237
9017.658,8.701931
9019.587,8.700138
9021.516,8.689786
9023.444,8.689771
9025.373,8.702776
9027.301,8.714209
9029.229,8.718934
9031.158,8.711697
9033.087,8.703581
9035.015,8.703611
9036.943,8.709442
9038.872,8.701423
9040.801,8.701279
9042.729,8.716928
9044.657,8.717708
9046.586,8.715863
9048.515,8.721583
9050.443,8.722212
9052.372,8.71222
9054.3,8.719299
9056.229,8.730235
9058.157,8.724129
9060.086,8.71572
9062.014,8.714859
9063.942,8.720628
9065.871,8.725845
9067.8,8.737383
9069.729,8.739578
9071.656,8.723721
9073.585,8.7279
9075.514,8.73138
9077.442,8.72471
9079.37,8.732349
9081.299,8.743604
9083.228,8.753822
9085.156,8.763764
9087.085,8.744284
9089.013,8.737667
9090.941,8.74847
9092.87,8.755431
9094.799,8.760611
9096.727,8.760812
9098.655,8.748837
9100.584,8.747859
9102.513,8.743904
9104.441,8.74353
9106.369,8.75225
9108.298,8.75606
9110.227,8.742941
9112.155,8.746795
9114.084,8.747413
9116.012,8.751775
9117.94,8.74482
9119.869,8.734884
9121.798,8.738276
9123.726,8.754918
9125.654,8.76078
9127.583,8.75445
9129.512,8.754483
9131.44,8.743149
9133.368,8.731231
9135.297,8.729306
9137.226,8.742828
9139.154,8.745694
9141.082,8.736932
9143.011,8.743453
9144.939,8.739244
9146.868,8.726986
9148.797,8.708479
9150.725,8.715927
9152.653,8.728686
9154.582,8.729386
9156.511,8.715423
9158.439,8.714744
9160.367,8.733673
9162.296,8.743981
9164.225,8.735489
9166.153,8.713475
9168.081,8.707998
9170.01,8.718283
9171.938,8.717572
9173.867,8.710239
9175.796,8.704082
9177.724,8.712702
9179.652,8.71567
9181.581,8.708663
9183.51,8.703924
9185.438,8.693179
9187.366,8.698085
9189.295,8.709577
9191.224,8.703317
9193.152,8.692016
9195.08,8.680307
9197.009,8.676048
9198.938,8.683991
9200.866,8.685008
9202.795,8.689349
9204.723,8.697877
9206.651,8.681401
9208.58,8.675692
9210.509,8.674197
9212.437,8.671795
9214.365,8.679998
9216.294,8.674931
9218.223,8.666875
9220.151,8.675356
9222.079,8.672251
9224.008,8.667259
9225.937,8.672608
9227.865,8.668785
9229.793,8.655785
9231.722,8.650422
9233.65,8.655251
9235.579,8.654862
9237.508,8.667315
9239.436,8.668171
9241.364,8.660862
9243.293,8.659085
9245.222,8.648643
9247.15,8.656435
9249.078,8.656977
9251.007,8.64313
9252.936,8.640825
9254.864,8.645368
9256.792,8.646029
9258.721,8.650176
9260.649,8.644195
9262.578,8.634467
9264.507,8.629025
9266.435,8.645545
9268.363,8.64766
9270.292,8.648305
9272.221,8.640368
9274.148,8.626385
9276.077,8.619583
9278.006,8.61352
9279.935,8.604236
9281.863,8.60066
9283.791,8.603763
9285.72,8.611358
9287.648,8.609433
9289.577,8.598336
9291.506,8.591594
9293.434,8.607242
9295.362,8.617339
9297.291,8.628254
9299.22,8.616044
9301.147,8.608953
9303.076,8.611276
9305.005,8.628224
9306.934,8.62109
9308.862,8.613179
9310.79,8.597335
9312.719,8.605859
9314.647,8.612147
9316.576,8.607928
9318.504,8.615617
9320.433,8.626014
9322.361,8.630799
9324.29,8.62699
9326.219,8.620843
9328.146,8.619037
9330.075,8.618319
9332.004,8.619761
9333.933,8.625367
9335.861,8.622272
9337.789,8.62108
9339.718,8.616065
9341.646,8.596388
9343.575,8.59043
9345.503,8.587955
9347.432,8.59823
9349.36,8.609977
9351.289,8.607855
9353.218,8.613037
9355.146,8.603943
9357.074,8.590104
9359.003,8.584749
9360.932,8.59775
9362.859,8.593627
9364.788,8.580671
9366.717,8.583357
9368.646,8.583866
9370.574,8.567801
9372.502,8.554998
9374.431,8.565958
9376.359,8.563677
9378.288,8.557227
9380.217,8.565342
9382.145,8.56214
9384.073,8.548703
9386.002,8.54313
9387.931,8.548134
9389.858,8.53806
9391.787,8.524762
9393.716,8.520318
9395.645,8.529669
9397.573,8.53951
9399.501,8.54178
9401.43,8.523091
9403.358,8.503883
9405.287,8.504959
9407.215,8.499593
9409.144,8.491171
9411.072,8.496696
9413.001,8.495487
9414.93,8.502355
9416.857,8.496837
9418.786,8.479942
9420.715,8.465172
9422.644,8.474552
9424.571,8.491023
9426.5,8.490525
9428.429,8.480727
9430.357,8.46059
9432.286,8.461832
9434.214,8.447898
9436.143,8.448546
9438.071,8.456616
9440.0,8.443123
9441.929,8.433817
9443.856,8.432087
9445.785,8.437262
9447.714,8.438106
9449.643,8.42318
9451.57,8.416309
9453.499,8.411632
9455.428,8.402535
9457.356,8.409895
9459.285,8.403584
9461.213,8.365937
9463.142,8.355173
9465.07,8.372746
9466.999,8.377581
9468.927,8.357565
9470.855,8.344932
9472.784,8.358168
9474.713,8.367531
9476.642,8.372819
9478.569,8.357997
9480.498,8.340296
9482.427,8.335858
9484.355,8.353111
9486.284,8.362277
9488.212,8.344571
9490.141,8.310497
9492.069,8.324809
9493.998,8.339728
9495.926,8.326826
9497.854,8.304814
9499.783,8.298548
9501.712,8.322536
9503.641,8.298742
9505.568,8.274312
9507.497,8.306822
9509.426,8.320232
9511.354,8.306782
9513.282,8.310637
9515.211,8.300725
9517.14,8.304126
9519.068,8.298084
9520.997,8.280484
9522.925,8.279829
9524.854,8.279201
9526.782,8.275026
9528.711,8.264213
9530.64,8.265254
9532.567,8.262173
9534.496,8.250662
9536.425,8.267015
9538.354,8.275931
9540.281,8.253647
9542.21,8.232633
9544.139,8.234945
9546.067,8.230467
9547.996,8.219186
9549.924,8.235157
9551.853,8.214653
9553.781,8.200991
9555.71,8.218521
9557.638,8.204533
9559.566,8.196651
9561.495,8.207944
9563.424,8.209196
9565.353,8.202479
9567.28,8.200759
9569.209,8.194232
9571.138,8.18111
9573.066,8.183311
9574.995,8.184407
9576.923,8.183944
9578.852,8.192946
9580.78,8.177483
9582.709,8.166794
9584.637,8.159713
9586.565,8.174632
9588.494,8.180395
9590.423,8.180306
9592.352,8.16276
9594.279,8.149354
9596.208,8.151569
9598.137,8.157731
9600.065,8.169443
9601.993,8.179145
9603.922,8.183761
9605.851,8.189117
9607.779,8.188363
9609.708,8.194261
9611.636,8.190463
9613.564,8.182753
9615.493,8.191132
9617.422,8.196972
9619.351,8.192282
9621.278,8.20437
9623.207,8.227385
9625.136,8.237531
9627.064,8.247301
9628.992,8.263614
9630.921,8.257256
9632.85,8.251127
9634.778,8.249198
9636.707,8.245402
9638.635,8.251215
9640.563,8.260297
9642.492,8.273119
9644.421,8.280813
9646.349,8.289381
9648.277,8.283743
9650.206,8.311906
9652.135,8.327289
9654.063,8.331349
9655.991,8.345781
9657.92,8.34111
9659.849,8.351157
9661.777,8.354352
9663.706,8.368217
9665.634,8.379335
9667.563,8.371859
9669.491,8.368458
9671.42,8.387857
9673.348,8.390908
9675.276,8.403593
9677.205,8.409778
9679.134,8.414174
9681.063,8.432638
9682.99,8.439224
9684.919,8.445888
9686.848,8.436287
9688.776,8.448614
9690.704,8.4717
9692.633,8.47534
9694.562,8.477094
9696.49,8.496624
9698.419,8.504662
9700.347,8.506002
9702.275,8.510555
9704.204,8.518265
9706.133,8.509188
9708.062,8.513361
9709.989,8.52929
9711.918,8.545171
9713.847,8.552999
9715.775,8.551607
9717.703,8.552107
9719.632,8.562539
9721.561,8.579187
9723.489,8.587483
9725.418,8.587934
9727.346,8.596906
9729.274,8.622239
9731.203,8.632377
9733.132,8.620724
9735.06,8.646515
9736.988,8.646973
9738.917,8.642108
9740.846,8.6547
9742.774,8.635567
9744.702,8.638115
9746.631,8.694476
9748.56,8.700502
9750.488,8.689681
9752.416,8.69286
9754.345,8.691167
9756.273,8.694315
9758.202,8.708707
9760.131,8.706883
9762.059,8.711637
9763.987,8.710572
9765.916,8.710933
9767.845,8.724843
9769.773,8.741415
9771.701,8.753996
9773.63,8.734102
9775.559,8.726742
9777.487,8.74356
9779.415,8.745147
9781.344,8.726677
9783.272,8.731576
9785.201,8.742429
9787.13,8.75267
9789.058,8.750532
9790.986,8.73858
9792.915,8.728624
9794.844,8.716618
9796.771,8.729286
9798.7,8.735512
9800.629,8.740312
9802.558,8.739347
9804.486,8.736415
9806.414,8.749197
9808.343,8.766548
9810.271,8.758608
9812.2,8.739596
9814.129,8.739948
9816.057,8.762082
9817.985,8.771612
9819.914,8.753222
9821.843,8.783043
9823.771,8.788274
9825.699,8.778571
9827.628,8.781718
9829.557,8.774858
9831.485,8.790743
9833.413,8.807395
9835.342,8.784307
9837.271,8.782248
9839.199,8.80253
9841.127,8.781878
9843.056,8.790057
9844.984,8.820905
9846.913,8.826242
9848.842,8.826847
9850.77,8.836713
9852.698,8.863201
9854.627,8.861889
9856.556,8.883777
9858.484,8.898291
9860.412,8.895834
9862.341,8.897531
9864.27,8.892916
9866.198,8.902272
9868.126,8.927972
9870.055,8.933887
9871.983,8.923814
9873.912,8.906655
9875.841,8.921975
9877.769,8.945891
9879.697,8.934166
9881.626,8.945765
9883.555,8.944672
9885.482,8.941989
9887.411,8.973469
9889.34,8.988432
9891.269,8.991466
9893.197,8.995569
9895.125,8.983471
9897.054,9.000565
9898.982,9.047822
9900.911,9.048
9902.84,9.026382
9904.768,9.033118
9906.696,9.060929
9908.625,9.085388
9910.554,9.073224
9912.481,9.071751
9914.41,9.069036
9916.339,9.068892
9918.268,9.072789
9920.196,9.096985
9922.124,9.119073
9924.053,9.130922
9925.981,9.133216
9927.91,9.135009
9929.838,9.128156
9931.767,9.118958
9933.695,9.145085
9935.624,9.164864
9937.553,9.171661
9939.48,9.165743
9941.409,9.17937
9943.338,9.162315
9945.267,9.149663
9947.195,9.163225
9949.123,9.161349
9951.052,9.158788
9952.98,9.184813
9954.909,9.199059
9956.837,9.214253
9958.766,9.222669
9960.694,9.22283
9962.623,9.224748
9964.552,9.249992
9966.479,9.256228
9968.408,9.238538
9970.337,9.240044
9972.266,9.253157
9974.193,9.264296
9976.122,9.260397
9978.051,9.281071
9979.979,9.292377
9981.908,9.286714
9983.836,9.278316
9985.765,9.276369
9987.693,9.269024
9989.622,9.275731
9991.551,9.28522
9993.479,9.274858
9995.407,9.263894
9997.336,9.269683
9999.265,9.274828
10001.19,9.311204
10003.12,9.322413
10005.05,9.295891
10006.98,9.286019
10008.91,9.296755
10010.83,9.326172
10012.76,9.325963
10014.69,9.311538
10016.62,9.32384
10018.55,9.336021
10020.48,9.349003
10022.41,9.356969
10024.33,9.33989
10026.26,9.333173
10028.19,9.349938
10030.12,9.361898
10032.05,9.36288
10033.98,9.361163
10035.91,9.36433
10037.83,9.368248
10039.76,9.354297
10041.69,9.370958
10043.62,9.387985
10045.55,9.382608
10047.48,9.395781
10049.41,9.41249
10051.33,9.416775
10053.26,9.395073
10055.19,9.413322
10057.12,9.439232
10059.05,9.426286
10060.98,9.421536
10062.9,9.428643
10064.83,9.433891
10066.76,9.450164
10068.69,9.460344
10070.62,9.470127
10072.55,9.453618
10074.48,9.434242
10076.4,9.425709
10078.33,9.442059
10080.26,9.456429
10082.19,9.452735
10084.12,9.46243
10086.05,9.457252
10087.98,9.47633
10089.9,9.473298
10091.83,9.462597
10093.76,9.462074
10095.69,9.467319
10097.62,9.458573
10099.55,9.465791
10101.47,9.465246
10103.4,9.46442
10105.33,9.478547
10107.26,9.469887
10109.19,9.446339
10111.12,9.459538
10113.05,9.475216
10114.97,9.474408
10116.9,9.485473
10118.83,9.489193
10120.76,9.509732
10122.69,9.48349
10124.62,9.470616
10126.54,9.483205
10128.47,9.508327
10130.4,9.499359
10132.33,9.474714
10134.26,9.491756
10136.19,9.508721
10138.12,9.505423
10140.04,9.492624
10141.97,9.497916
10143.9,9.505385
10145.83,9.509201
10147.76,9.500566
10149.69,9.496385
10151.62,9.503623
10153.54,9.512316
10155.47,9.516321
10157.4,9.514216
10159.33,9.530533
10161.26,9.507398
10163.19,9.500007
10165.12,9.507538
10167.04,9.523356
10168.97,9.507196
10170.9,9.538773
10172.83,9.543131
10174.76,9.520318
10176.69,9.514174
10178.61,9.538791
10180.54,9.534862
10182.47,9.499709
10184.4,9.497066
10186.33,9.515214
10188.26,9.522001
10190.19,9.514067
10192.11,9.531864
10194.04,9.537541
10195.97,9.533124
10197.9,9.530795
10199.83,9.511609
10201.76,9.511143
10203.69,9.530754
10205.61,9.553642
10207.54,9.557796
10209.47,9.552274
10211.4,9.553359
10213.33,9.56902
10215.26,9.557226
10217.18,9.518922
10219.11,9.529736
10221.04,9.559032
10222.97,9.548903
10224.9,9.537024
10226.83,9.548625
10228.76,9.531302
10230.68,9.525307
10232.61,9.533972
10234.54,9.518931
10236.47,9.506618
10238.4,9.508867
10240.33,9.518877
10242.25,9.531179
10244.18,9.537085
10246.11,9.531627
10248.04,9.547503
10249.97,9.555628
10251.9,9.58048
10253.83,9.571744
10255.75,9.565528
10257.68,9.57151
10259.61,9.554026
10261.54,9.554993
10263.47,9.564883
10265.4,9.550481
10267.33,9.527369
10269.25,9.51151
10271.18,9.523458
10273.11,9.542392
10275.04,9.545675
10276.97,9.52762
10278.9,9.520509
10280.83,9.522045
10282.75,9.515186
10284.68,9.495328
10286.61,9.482617
10288.54,9.498271
10290.47,9.541172
10292.4,9.52377
10294.32,9.502542
10296.25,9.519449
10298.18,9.52719
10300.11,9.529344
10302.04,9.538189
10303.97,9.570935
10305.9,9.568885
10307.82,9.532078
10309.75,9.522131
10311.68,9.524191
10313.61,9.531336
10315.54,9.525
10317.47,9.521654
10319.4,9.504786
10321.32,9.510433
10323.25,9.547434
10325.18,9.540694
10327.11,9.524605
10329.04,9.50894
10330.97,9.515721
10332.89,9.519578
10334.82,9.485881
10336.75,9.491976
10338.68,9.504112
10340.61,9.525294
10342.54,9.518209
10344.47,9.497565
10346.39,9.520823
10348.32,9.515297
10350.25,9.478423
10352.18,9.49892
10354.11,9.503928
10356.04,9.513271
10357.96,9.481233
10359.89,9.463676
10361.82,9.495528
10363.75,9.534287
10365.68,9.525068
10367.61,9.50915
10369.54,9.496501
10371.46,9.516074
10373.39,9.507055
10375.32,9.48617
10377.25,9.441477
10379.18,9.459882
10381.11,9.483023
10383.04,9.494296
10384.96,9.490968
10386.89,9.496282
10388.82,9.527737
10390.75,9.531582
10392.68,9.514132
10394.61,9.516466
10396.54,9.499186
10398.46,9.44371
10400.39,9.451292
10402.32,9.469585
10404.25,9.496414
10406.18,9.464081
10408.11,9.430567
10410.03,9.416908
10411.96,9.440792
10413.89,9.496586
10415.82,9.514866
10417.75,9.475745
10419.68,9.46056
10421.61,9.471596
10423.53,9.469895
10425.46,9.429989
10427.39,9.413732
10429.32,9.417944
10431.25,9.393369
10433.18,9.394257
10435.1,9.422189
10437.03,9.423882
10438.96,9.407725
10440.89,9.41353
10442.82,9.401556
10444.75,9.402574
10446.68,9.417204
10448.6,9.412137
10450.53,9.372696
10452.46,9.376333
10454.39,9.400601
10456.32,9.407557
10458.25,9.423837
10460.18,9.435787
10462.1,9.412114
10464.03,9.389928
10465.96,9.387996
10467.89,9.391984
10469.82,9.377875
10471.75,9.380274
10473.67,9.353045
10475.6,9.345068
10477.53,9.339348
10479.46,9.334129
10481.39,9.321512
10483.32,9.340332
10485.25,9.355623
10487.17,9.314274
10489.1,9.303894
10491.03,9.317482
10492.96,9.297141
10494.89,9.279988
10496.82,9.249238
10498.75,9.275722
10500.67,9.294996
10502.6,9.263964
10504.53,9.24959
10506.46,9.249994
10508.39,9.268253
10510.32,9.279261
10512.25,9.265632
10514.17,9.227171
10516.1,9.234717
10518.03,9.21707
10519.96,9.177758
10521.89,9.200159
10523.82,9.17363
10525.74,9.153804
10527.67,9.142591
10529.6,9.154956
10531.53,9.111307
10533.46,9.101913
10535.39,9.125512
10537.32,9.104269
10539.24,9.079918
10541.17,9.103187
10543.1,9.116585
10545.03,9.095992
10546.96,9.078764
10548.89,9.049366
10550.81,8.992537
10552.74,8.981544
10554.67,9.00042
10556.6,9.006681
10558.53,8.991872
10560.46,8.985294
10562.39,8.994431
10564.31,8.940662
10566.24,8.904905
10568.17,8.929861
10570.1,8.935154
10572.03,8.908016
10573.96,8.886762
10575.89,8.849217
10577.81,8.829206
10579.74,8.82544
10581.67,8.798765
10583.6,8.755287
10585.53,8.74272
10587.46,8.734641
10589.38,8.715795
10591.31,8.70402
10593.24,8.706333
10595.17,8.708363
10597.1,8.685927
10599.03,8.648625
10600.96,8.636183
10602.88,8.589263
10604.81,8.552584
10606.74,8.511845
10608.67,8.504856
10610.6,8.497221
10612.53,8.507098
10614.46,8.496653
10616.38,8.448299
10618.31,8.436071
10620.24,8.401941
10622.17,8.39174
10624.1,8.383736
10626.03,8.353305
10627.96,8.298617
10629.88,8.251516
10631.81,8.226818
10633.74,8.183386
10635.67,8.174804
10637.6,8.156092
10639.53,8.114046
10641.45,8.118315
10643.38,8.112342
10645.31,8.084667
10647.24,8.057592
10649.17,8.059188
10651.1,8.021294
10653.03,7.953498
10654.95,7.934196
10656.88,7.934188
10658.81,7.906307
10660.74,7.868718
10662.67,7.861882
10664.6,7.833322
10666.52,7.811868
10668.45,7.776248
10670.38,7.737539
10672.31,7.756347
10674.24,7.741095
10676.17,7.687595
10678.1,7.697566
10680.02,7.647406
10681.95,7.608542
10683.88,7.600571
10685.81,7.562793
10687.74,7.533255
10689.67,7.560974
10691.59,7.583799
10693.52,7.566735
10695.45,7.518998
10697.38,7.491542
10699.31,7.502393
10701.24,7.502879
10703.17,7.459963
10705.09,7.470051
10707.02,7.472048
10708.95,7.424782
10710.88,7.416851
10712.81,7.436931
10714.74,7.446166
10716.67,7.436167
10718.59,7.427876
10720.52,7.447154
10722.45,7.477639
10724.38,7.458579
10726.31,7.419394
10728.24,7.401747
10730.17,7.407801
10732.09,7.414098
10734.02,7.451913
10735.95,7.45143
10737.88,7.424143
10739.81,7.432906
10741.74,7.45891
10743.67,7.481495
10745.59,7.446939
10747.52,7.468787
10749.45,7.488733
10751.38,7.483623
10753.31,7.513463
10755.24,7.526004
10757.16,7.485823
10759.09,7.469095
10761.02,7.520994
10762.95,7.568373
10764.88,7.582315
10766.81,7.601607
10768.74,7.625899
10770.66,7.624178
10772.59,7.596754
10774.52,7.568944
10776.45,7.590583
10778.38,7.632411
10780.31,7.635301
10782.23,7.609843
10784.16,7.673095
10786.09,7.735131
10788.02,7.800858
10789.95,7.833162
10791.88,7.763955
10793.81,7.749541
10795.73,7.785013
10797.66,7.769574
10799.59,7.794726
10801.52,7.821975
10803.45,7.870276
10805.38,7.856992
10807.3,7.86482
10809.23,7.886754
10811.16,7.946315
10813.09,7.961531
10815.02,7.926576
10816.95,7.919306
10818.88,7.971956
10820.8,8.000645
10822.73,8.004236
10824.66,7.984379
10826.59,8.015743
10828.52,8.072409
10830.45,8.112662
10832.38,8.133967
10834.3,8.182286
10836.23,8.186966
10838.16,8.162461
10840.09,8.183822
10842.02,8.243223
10843.95,8.247781
10845.88,8.287903
10847.8,8.284571
10849.73,8.248486
10851.66,8.259641
10853.59,8.308009
10855.52,8.322771
10857.45,8.3169
10859.38,8.322978
10861.3,8.362877
10863.23,8.373693
10865.16,8.385307
10867.09,8.436455
10869.02,8.460815
10870.95,8.482014
10872.87,8.515044
10874.8,8.511617
10876.73,8.524346
10878.66,8.543735
10880.59,8.557147
10882.52,8.563029
10884.45,8.586112
10886.37,8.600249
10888.3,8.585267
10890.23,8.617414
10892.16,8.707312
10894.09,8.722994
10896.02,8.684707
10897.94,8.701653
10899.87,8.753402
10901.8,8.780703
10903.73,8.803539
10905.66,8.789603
10907.59,8.759486
10909.52,8.77917
10911.44,8.810882
10913.37,8.876612
10915.3,8.862486
10917.23,8.815293
10919.16,8.84114
10921.09,8.90792
10923.01,8.930198
10924.94,8.943821
10926.87,8.936236
10928.8,8.923982
10930.73,8.9433
10932.66,8.95394
10934.59,8.995858
10936.51,9.037194
10938.44,9.0866
10940.37,9.082903
10942.3,9.04695
10944.23,9.061855
10946.16,9.089155
10948.09,9.071595
10950.01,9.031171
10951.94,9.062277
10953.87,9.153624
10955.8,9.183729
10957.73,9.17182
10959.66,9.172775
10961.58,9.171266
10963.51,9.167312
10965.44,9.218641
10967.37,9.216293
10969.3,9.206603
10971.23,9.212845
10973.16,9.250587
10975.08,9.290243
10977.01,9.340371
10978.94,9.313239
10980.87,9.320652
10982.8,9.331523
10984.73,9.318919
10986.66,9.365436
10988.58,9.383176
10990.51,9.367931
10992.44,9.400758
10994.37,9.420466
10996.3,9.406715
10998.23,9.390389
11000.16,9.383142
11002.08,9.393493
11004.01,9.410696
11005.94,9.44716
11007.87,9.469013
11009.8,9.479919
11011.73,9.481475
11013.65,9.411769
11015.58,9.415562
11017.51,9.460757
11019.44,9.493797
11021.37,9.564392
11023.3,9.6064
11025.23,9.584297
11027.15,9.543423
11029.08,9.50888
11031.01,9.505651
11032.94,9.516934
11034.87,9.50735
11036.8,9.58512
11038.72,9.633378
11040.65,9.605585
11042.58,9.608562
11044.51,9.604766
11046.44,9.556891
11048.37,9.582442
11050.3,9.600698
11052.22,9.638703
11054.15,9.642528
11056.08,9.646441
11058.01,9.65544
11059.94,9.617856
11061.87,9.62372
11063.79,9.61291
11065.72,9.64411
11067.65,9.69274
11069.58,9.678494
11071.51,9.606785
11073.44,9.665561
11075.37,9.663652
11077.29,9.661427
11079.22,9.681334
11081.15,9.686632
11083.08,9.707719
11085.01,9.758031
11086.94,9.716751
11088.87,9.703124
11090.79,9.707715
11092.72,9.68843
11094.65,9.716142
11096.58,9.779488
11098.51,9.757071
11100.44,9.731183
11102.37,9.717536
11104.29,9.773691
11106.22,9.788608
11108.15,9.748873
11110.08,9.717105
11112.01,9.709415
11113.94,9.738012
11115.87,9.732021
11117.79,9.692575
11119.72,9.70065
11121.65,9.785685
11123.58,9.787732
11125.51,9.719535
11127.44,9.679747
11129.36,9.705637
11131.29,9.766994
11133.22,9.796232
11135.15,9.830984
11137.08,9.829481
11139.01,9.796229
11140.94,9.787832
11142.86,9.859551
11144.79,9.896328
11146.72,9.882554
11148.65,9.819444
11150.58,9.816781
11152.51,9.817234
11154.43,9.795327
11156.36,9.728316
11158.29,9.768503
11160.22,9.793067
11162.15,9.821942
11164.08,9.844922
11166.01,9.851233
11167.93,9.838497
11169.86,9.844353
11171.79,9.830197
11173.72,9.876496
11175.65,9.867361
11177.58,9.908808
11179.5,9.918574
11181.43,9.815225
11183.36,9.824177
11185.29,9.900725
11187.22,9.95098
11189.15,9.925751
11191.08,9.91686
11193.0,9.919707
11194.93,9.883423
11196.86,9.913095
11198.79,9.987727
11200.72,9.996037
11202.65,9.940694
11204.58,9.934916
11206.5,9.994702
11208.43,10.01525
11210.36,10.03419
11212.29,10.04566
11214.22,10.03024
11216.15,9.997771
11218.08,9.977434
11220.0,9.978899
11221.93,10.08967
11223.86,10.07686
11225.79,10.0307
11227.72,10.04392
11229.65,10.0876
11231.58,10.07533
11233.5,10.00334
11235.43,9.965223
11237.36,10.0169
11239.29,10.06653
11241.22,10.07069
11243.15,10.06
11245.07,10.00283
11247.0,9.970748
11248.93,10.00699
11250.86,10.10311
11252.79,10.15644
11254.72,10.07592
11256.65,10.0297
11258.57,10.09581
11260.5,10.11742
11262.43,10.1069
11264.36,10.08155
11266.29,10.03257
11268.22,10.08948
11270.14,10.12306
11272.07,10.12471
11274.0,10.12178
11275.93,10.13061
11277.86,10.12733
11279.79,10.10913
11281.72,10.12388
11283.64,10.18668
11285.57,10.22258
11287.5,10.15063
11289.43,10.10126
11291.36,10.07897
11293.29,10.1312
11295.21,10.2153
11297.14,10.20599
11299.07,10.15721
11301.0,10.0916
11302.93,10.107
11304.86,10.12497
11306.79,10.13948
11308.71,10.21318
11310.64,10.28328
11312.57,10.30455
11314.5,10.21985
11316.43,10.14895
11318.36,10.17871
11320.29,10.21388
11322.21,10.20849
11324.14,10.19001
11326.07,10.14773
11328.0,10.24917
11329.93,10.28975
11331.86,10.23971
11333.79,10.27009
11335.71,10.24223
11337.64,10.17172
11339.57,10.16894
11341.5,10.25779
11343.43,10.25362
11345.36,10.22349
11347.28,10.16818
11349.21,10.16288
11351.14,10.23683
11353.07,10.1634
11355.0,10.16668
11356.93,10.14715
11358.86,10.15639
11360.78,10.19046
11362.71,10.23363
11364.64,10.2801
11366.57,10.28452
11368.5,10.31934
11370.43,10.31364
11372.36,10.26873
11374.28,10.23979
11376.21,10.26824
11378.14,10.29731
11380.07,10.28798
11382.0,10.22071
11383.93,10.23882
11385.85,10.32748
11387.78,10.301
11389.71,10.3306
11391.64,10.31987
11393.57,10.255
11395.5,10.19635
11397.43,10.21013
11399.35,10.16869
11401.28,10.25767
11403.21,10.30209
11405.14,10.35209
11407.07,10.4381
11409.0,10.40056
11410.92,10.29626
11412.85,10.24699
11414.78,10.24698
11416.71,10.21599
11418.64,10.3091
11420.57,10.34427
11422.5,10.33742
11424.42,10.38298
11426.35,10.32284
11428.28,10.35903
11430.21,10.41302
11432.14,10.37961
11434.07,10.34678
11436.0,10.40581
11437.92,10.43324
11439.85,10.42752
11441.78,10.35919
11443.71,10.2954
11445.64,10.30772
11447.57,10.33316
11449.5,10.33516
11451.42,10.38459
11453.35,10.4158
11455.28,10.3996
11457.21,10.42824
11459.14,10.39138
11461.07,10.39918
11462.99,10.36817
11464.92,10.37689
11466.85,10.41572
11468.78,10.41507
11470.71,10.42914
11472.64,10.44202
11474.57,10.42386
11476.49,10.40046
11478.42,10.42252
11480.35,10.39142
11482.28,10.39527
11484.21,10.41175
11486.14,10.36934
11488.07,10.36435
11489.99,10.32984
11491.92,10.30352
11493.85,10.31914
11495.78,10.43421
11497.71,10.48897
11499.64,10.4057
11501.56,10.39896
11503.49,10.40117
11505.42,10.3055
11507.35,10.38005
11509.28,10.46273
11511.21,10.42544
11513.14,10.38651
11515.06,10.3643
11516.99,10.39766
11518.92,10.38564
11520.85,10.36009
11522.78,10.47482
11524.71,10.48818
11526.63,10.4658
11528.56,10.46074
11530.49,10.44324
11532.42,10.5298
11534.35,10.52496
11536.28,10.48721
11538.21,10.43397
11540.13,10.42603
11542.06,10.47555
11543.99,10.48761
11545.92,10.45319
11547.85,10.51429
11549.78,10.50259
11551.71,10.51333
11553.63,10.45245
11555.56,10.46597
11557.49,10.51112
11559.42,10.50991
11561.35,10.54446
11563.28,10.51781
11565.21,10.46091
11567.13,10.52273
11569.06,10.57094
11570.99,10.59617
11572.92,10.45968
11574.85,10.41936
11576.78,10.41882
11578.7,10.52713
11580.63,10.53271
11582.56,10.40951
11584.49,10.40043
11586.42,10.49711
11588.35,10.56076
11590.28,10.5906
11592.2,10.4999
11594.13,10.40561
11596.06,10.45097
11597.99,10.59434
11599.92,10.57728
11601.85,10.52561
11603.78,10.47609
11605.7,10.49592
11607.63,10.64015
11609.56,10.63334
11611.49,10.50301
11613.42,10.42141
11615.35,10.51392
11617.27,10.57928
11619.2,10.54674
11621.13,10.58841
11623.06,10.59668
11624.99,10.60671
11626.92,10.58857
11628.85,10.5423
11630.77,10.52531
11632.7,10.5598
11634.63,10.60706
11636.56,10.54573
11638.49,10.54255
11640.42,10.52501
11642.34,10.57665
11644.27,10.61879
11646.2,10.54611
11648.13,10.59647
11650.06,10.57515
11651.99,10.57075
11653.92,10.59403
11655.84,10.57335
11657.77,10.55903
11659.7,10.5555
11661.63,10.58628
11663.56,10.61223
11665.49,10.57307
11667.42,10.51688
11669.34,10.59041
11671.27,10.6892
11673.2,10.79065
11675.13,10.69253
11677.06,10.61535
11678.99,10.65995
11680.92,10.69497
11682.84,10.56889
11684.77,10.48465
11686.7,10.57946
11688.63,10.58922
11690.56,10.66052
11692.49,10.61748
11694.41,10.54368
11696.34,10.52388
11698.27,10.51053
11700.2,10.53893
11702.13,10.56145
11704.06,10.5439
11705.99,10.51751
11707.91,10.50809
11709.84,10.53781
11711.77,10.61306
11713.7,10.68712
11715.63,10.66348
11717.56,10.59931
11719.48,10.62069
11721.41,10.60058
11723.34,10.51929
11725.27,10.53806
11727.2,10.625
11729.13,10.58434
11731.06,10.52781
11732.98,10.63241
11734.91,10.75937
11736.84,10.63161
11738.77,10.46038
11740.7,10.57408
11742.63,10.66567
11744.56,10.64008
11746.48,10.61957
11748.41,10.60433
11750.34,10.61766
11752.27,10.58798
11754.2,10.62819
11756.13,10.54843
11758.05,10.56806
11759.98,10.60729
11761.91,10.56417
11763.84,10.4835
11765.77,10.46156
11767.7,10.52519
11769.63,10.59447
11771.55,10.54848
11773.48,10.50392
11775.41,10.56398
11777.34,10.63894
11779.27,10.60394
11781.2,10.5081
11783.13,10.47769
11785.05,10.62581
11786.98,10.57244
11788.91,10.50308
11790.84,10.43296
11792.77,10.50245
11794.7,10.63445
11796.63,10.59408
11798.55,10.55751
11800.48,10.59155
11802.41,10.56142
11804.34,10.47256
11806.27,10.39464
11808.2,10.42726
11810.12,10.54013
11812.05,10.53094
11813.98,10.52951
11815.91,10.64319
11817.84,10.63879
11819.77,10.59784
11821.7,10.63184
11823.62,10.62925
11825.55,10.59513
11827.48,10.551
11829.41,10.60453
11831.34,10.65999
11833.27,10.54742
11835.19,10.47458
11837.12,10.49342
11839.05,10.55399
11840.98,10.6185
11842.91,10.54942
11844.84,10.5704
11846.77,10.64243
11848.69,10.70668
11850.62,10.64355
11852.55,10.71162
11854.48,10.65251
11856.41,10.6089
11858.34,10.59816
11860.27,10.57538
11862.19,10.5631
11864.12,10.5437
11866.05,10.6056
11867.98,10.61181
11869.91,10.57166
11871.84,10.52931
11873.76,10.55513
11875.69,10.53162
11877.62,10.50423
11879.55,10.63627
11881.48,10.79379
11883.41,10.67489
11885.34,10.62212
11887.26,10.51201
11889.19,10.47875
11891.12,10.56481
11893.05,10.61227
11894.98,10.64992
11896.91,10.70406
11898.83,10.68984
11900.76,10.6116
11902.69,10.62985
11904.62,10.66254
11906.55,10.53604
11908.48,10.51135
11910.41,10.59018
11912.33,10.64413
11914.26,10.60912
11916.19,10.56182
11918.12,10.58667
11920.05,10.67114
11921.98,10.66195
11923.91,10.59704
11925.83,10.5204
11927.76,10.60298
11929.69,10.66421
11931.62,10.68058
11933.55,10.60533
11935.48,10.65761
11937.41,10.64199
11939.33,10.54557
11941.26,10.65123
11943.19,10.67722
11945.12,10.61372
11947.05,10.59148
11948.98,10.64423
11950.9,10.5498
11952.83,10.53962
11954.76,10.60457
11956.69,10.61975
11958.62,10.6909
11960.55,10.67608
11962.48,10.62319
11964.4,10.62987
11966.33,10.67264
11968.26,10.55193
11970.19,10.64339
11972.12,10.7325
11974.05,10.54758
11975.98,10.56177
11977.9,10.56798
11979.83,10.58708
11981.76,10.67345
11983.69,10.58305
11985.62,10.41858
11987.55,10.47212
11989.47,10.58705
11991.4,10.5547
11993.33,10.57537
11995.26,10.5756
11997.19,10.4874
11999.12,10.50617
