Wavenumber,Intensity
3999.706,2.623198
4001.634,2.625587
4003.563,2.626412
4005.491,2.625984
4007.42,2.630977
4009.348,2.634368
4011.277,2.63216
4013.205,2.626827
4015.134,2.62997
4017.062,2.637676
4018.991,2.635993
4020.919,2.633931
4022.848,2.63219
4024.776,2.632604
4026.705,2.638616
4028.633,2.642055
4030.562,2.639349
4032.49,2.640309
4034.419,2.643552
4036.347,2.644453
4038.276,2.644152
4040.204,2.646873
4042.133,2.646058
4044.061,2.643644
4045.99,2.640823
4047.918,2.64182
4049.847,2.645415
4051.775,2.650975
4053.704,2.651299
4055.632,2.650811
4057.561,2.652397
4059.489,2.648519
4061.418,2.649785
4063.346,2.652793
4065.275,2.6519
4067.203,2.65319
4069.132,2.651756
4071.06,2.650931
4072.989,2.651661
4074.917,2.657733
4076.846,2.659557
4078.774,2.656043
4080.703,2.655449
4082.631,2.656491
4084.56,2.660294
4086.488,2.662789
4088.417,2.664462
4090.345,2.662426
4092.274,2.658468
4094.202,2.662214
4096.131,2.662992
4098.059,2.65976
4099.988,2.654801
4101.916,2.658922
4103.845,2.663538
4105.773,2.663912
4107.702,2.663662
4109.63,2.663356
4111.559,2.664315
4113.487,2.665335
4115.416,2.664569
4117.344,2.665453
4119.273,2.665542
4121.201,2.668073
4123.13,2.670341
4125.058,2.669497
4126.987,2.667434
4128.915,2.667008
4130.844,2.666375
4132.772,2.66468
4134.701,2.665529
4136.629,2.66845
4138.558,2.669908
4140.486,2.670272
4142.415,2.671408
4144.343,2.671499
4146.271,2.671691
4148.2,2.673282
4150.129,2.670823
4152.057,2.671819
4153.986,2.673087
4155.914,2.674255
4157.843,2.672812
4159.771,2.67224
4161.7,2.676715
4163.628,2.676025
4165.557,2.673733
4167.485,2.675962
4169.414,2.677942
4171.342,2.679892
4173.271,2.682439
4175.199,2.682665
4177.127,2.683852
4179.056,2.6858
4180.985,2.686983
4182.913,2.687892
4184.842,2.68887
4186.77,2.690732
4188.699,2.689744
4190.627,2.692831
4192.556,2.699597
4194.484,2.699854
4196.413,2.70046
4198.341,2.704538
4200.27,2.707751
4202.198,2.70966
4204.126,2.709003
4206.055,2.710028
4207.983,2.714335
4209.912,2.718685
4211.841,2.720769
4213.769,2.719465
4215.698,2.722069
4217.626,2.724578
4219.555,2.727004
4221.483,2.730141
4223.412,2.731072
4225.34,2.732332
4227.269,2.732128
4229.197,2.735938
4231.125,2.736744
4233.054,2.739248
4234.982,2.740032
4236.911,2.740846
4238.84,2.73883
4240.768,2.741494
4242.697,2.742927
4244.625,2.740419
4246.554,2.736457
4248.482,2.736494
4250.411,2.737782
4252.339,2.738095
4254.268,2.739663
4256.196,2.743394
4258.125,2.742683
4260.053,2.744423
4261.981,2.749819
4263.91,2.753986
4265.838,2.755115
4267.767,2.758713
4269.696,2.760913
4271.624,2.762819
4273.553,2.760721
4275.481,2.759847
4277.41,2.760777
4279.338,2.76467
4281.267,2.765695
4283.195,2.762731
4285.124,2.763253
4287.052,2.767702
4288.98,2.770827
4290.909,2.771497
4292.837,2.76968
4294.766,2.771909
4296.694,2.77246
4298.623,2.774508
4300.552,2.774963
4302.48,2.774893
4304.409,2.771651
4306.337,2.768985
4308.266,2.769456
4310.194,2.769746
4312.123,2.770392
4314.051,2.769349
4315.979,2.763109
4317.908,2.760023
4319.836,2.755581
4321.765,2.753248
4323.693,2.754126
4325.622,2.755718
4327.551,2.758224
4329.479,2.759841
4331.408,2.75998
4333.336,2.760421
4335.265,2.763711
4337.193,2.766726
4339.122,2.765331
4341.05,2.766632
4342.979,2.76948
4344.907,2.770912
4346.835,2.775954
4348.764,2.779877
4350.692,2.778446
4352.621,2.775402
4354.549,2.778412
4356.478,2.779594
4358.407,2.780848
4360.335,2.782963
4362.264,2.782321
4364.192,2.784523
4366.121,2.783872
4368.049,2.78258
4369.978,2.779561
4371.906,2.783827
4373.834,2.788423
4375.763,2.787561
4377.691,2.785353
4379.62,2.784404
4381.548,2.789201
4383.477,2.790559
4385.405,2.7889
4387.334,2.790955
4389.263,2.793818
4391.191,2.79254
4393.12,2.791969
4395.048,2.794465
4396.977,2.792945
4398.905,2.793944
4400.833,2.797641
4402.762,2.799315
4404.69,2.799791
4406.619,2.803018
4408.547,2.80448
4410.476,2.805259
4412.404,2.809648
4414.333,2.814571
4416.262,2.820009
4418.19,2.825697
4420.119,2.826669
4422.047,2.830363
4423.976,2.840278
4425.904,2.848635
4427.833,2.857065
4429.761,2.864907
4431.689,2.870692
4433.618,2.877416
4435.546,2.887624
4437.475,2.900099
4439.403,2.910859
4441.332,2.92216
4443.26,2.932648
4445.189,2.940092
4447.117,2.952168
4449.046,2.965864
4450.975,2.981872
4452.903,2.996605
4454.832,3.008731
4456.76,3.024553
4458.688,3.037838
4460.617,3.048097
4462.545,3.060872
4464.474,3.076291
4466.402,3.092844
4468.331,3.105654
4470.259,3.117719
4472.188,3.128424
4474.116,3.138626
4476.045,3.157235
4477.974,3.175486
4479.902,3.188676
4481.831,3.202128
4483.759,3.213267
4485.688,3.225486
4487.616,3.239051
4489.544,3.251731
4491.473,3.2682
4493.401,3.28331
4495.33,3.298178
4497.258,3.313582
4499.187,3.325589
4501.115,3.342742
4503.044,3.360464
4504.972,3.375566
4506.901,3.390599
4508.83,3.407646
4510.758,3.425323
4512.687,3.443962
4514.615,3.458575
4516.543,3.470939
4518.472,3.487269
4520.4,3.503485
4522.329,3.522069
4524.257,3.536965
4526.186,3.553393
4528.114,3.57016
4530.043,3.588785
4531.971,3.605341
4533.9,3.619271
4535.828,3.638256
4537.757,3.657596
4539.686,3.675128
4541.614,3.691245
4543.542,3.711022
4545.471,3.726824
4547.399,3.743805
4549.328,3.762587
4551.256,3.780649
4553.185,3.799979
4555.113,3.820812
4557.042,3.838925
4558.97,3.857966
4560.899,3.878232
4562.827,3.896557
4564.756,3.918256
4566.685,3.932334
4568.613,3.945261
4570.542,3.959297
4572.47,3.974554
4574.398,3.989809
4576.327,4.002423
4578.255,4.014286
4580.184,4.027146
4582.112,4.041175
4584.041,4.053509
4585.969,4.062274
4587.898,4.072609
4589.826,4.085271
4591.755,4.098016
4593.683,4.107636
4595.612,4.114789
4597.54,4.124495
4599.469,4.133247
4601.397,4.141181
4603.326,4.146902
4605.254,4.156462
4607.183,4.165653
4609.111,4.171602
4611.04,4.177381
4612.968,4.184095
4614.897,4.189865
4616.825,4.198085
4618.754,4.209639
4620.682,4.21855
4622.611,4.228262
4624.539,4.237824
4626.468,4.243913
4628.396,4.250181
4630.325,4.253898
4632.253,4.256961
4634.182,4.26012
4636.11,4.266633
4638.039,4.272363
4639.967,4.277285
4641.896,4.279431
4643.824,4.280695
4645.753,4.279787
4647.681,4.278311
4649.61,4.278335
4651.538,4.274074
4653.467,4.267641
4655.396,4.261633
4657.324,4.251423
4659.252,4.237133
4661.181,4.220037
4663.109,4.206888
4665.038,4.197042
4666.966,4.193567
4668.895,4.199757
4670.823,4.212744
4672.752,4.228582
4674.68,4.249518
4676.609,4.275702
4678.537,4.290449
4680.466,4.303675
4682.394,4.321724
4684.323,4.333728
4686.251,4.340666
4688.18,4.35102
4690.108,4.357055
4692.037,4.359783
4693.965,4.359597
4695.894,4.360111
4697.822,4.363688
4699.751,4.360805
4701.679,4.359733
4703.608,4.364701
4705.536,4.36632
4707.465,4.363785
4709.393,4.359623
4711.322,4.357143
4713.25,4.351836
4715.179,4.346169
4717.107,4.340983
4719.036,4.331374
4720.964,4.32059
4722.893,4.312859
4724.821,4.304031
4726.75,4.295631
4728.678,4.286637
4730.606,4.279156
4732.535,4.275537
4734.464,4.27114
4736.392,4.265528
4738.321,4.265247
4740.249,4.262989
4742.178,4.256212
4744.106,4.249506
4746.035,4.247931
4747.963,4.242457
4749.892,4.236274
4751.82,4.229058
4753.749,4.221003
4755.677,4.214314
4757.605,4.210068
4759.534,4.201328
4761.463,4.194137
4763.391,4.187284
4765.32,4.177087
4767.248,4.165045
4769.177,4.154495
4771.105,4.138256
4773.034,4.123557
4774.962,4.115483
4776.891,4.105845
4778.819,4.09565
4780.748,4.0925
4782.676,4.087127
4784.604,4.082546
4786.533,4.081851
4788.462,4.078135
4790.39,4.073082
4792.319,4.070617
4794.247,4.063566
4796.176,4.057631
4798.104,4.057546
4800.033,4.052988
4801.961,4.044111
4803.89,4.033539
4805.818,4.023365
4807.747,4.014516
4809.675,4.004244
4811.604,3.993953
4813.532,3.979
4815.46,3.965696
4817.389,3.954371
4819.317,3.943777
4821.246,3.933805
4823.175,3.919719
4825.103,3.90965
4827.032,3.904293
4828.96,3.893529
4830.889,3.884096
4832.817,3.877265
4834.746,3.864764
4836.674,3.853629
4838.603,3.842904
4840.531,3.829738
4842.459,3.815291
4844.388,3.80377
4846.316,3.789679
4848.245,3.773894
4850.174,3.757298
4852.102,3.742314
4854.031,3.730898
4855.959,3.719087
4857.888,3.705205
4859.816,3.694877
4861.745,3.686887
4863.673,3.680188
4865.602,3.673627
4867.53,3.669231
4869.458,3.667074
4871.387,3.667423
4873.315,3.667521
4875.244,3.672314
4877.172,3.672473
4879.101,3.673576
4881.03,3.677189
4882.958,3.682965
4884.887,3.686213
4886.815,3.690885
4888.744,3.696846
4890.672,3.70575
4892.601,3.708613
4894.529,3.709126
4896.458,3.7121
4898.386,3.714578
4900.314,3.718009
4902.243,3.720077
4904.171,3.722614
4906.1,3.726277
4908.028,3.726674
4909.957,3.727632
4911.886,3.730188
4913.814,3.730316
4915.743,3.730755
4917.671,3.731537
4919.6,3.728349
4921.528,3.728061
4923.457,3.729784
4925.385,3.726406
4927.313,3.725158
4929.242,3.723199
4931.17,3.722542
4933.099,3.724428
4935.027,3.726098
4936.956,3.724289
4938.885,3.720304
4940.813,3.715429
4942.742,3.707764
4944.67,3.70032
4946.599,3.690806
4948.527,3.679222
4950.456,3.662708
4952.384,3.64682
4954.313,3.625826
4956.241,3.597956
4958.169,3.56902
4960.098,3.547617
4962.026,3.531992
4963.955,3.521003
4965.883,3.518718
4967.812,3.520968
4969.74,3.530106
4971.669,3.540611
4973.598,3.544374
4975.526,3.550305
4977.455,3.55385
4979.383,3.561087
4981.312,3.570703
4983.24,3.578069
4985.168,3.588935
4987.097,3.599801
4989.025,3.610029
4990.954,3.620425
4992.882,3.630494
4994.811,3.644
4996.739,3.661049
4998.668,3.675684
5000.597,3.688587
5002.525,3.699981
5004.454,3.706716
5006.382,3.711003
5008.311,3.719312
5010.239,3.726158
5012.167,3.725831
5014.096,3.725996
5016.024,3.729608
5017.953,3.731418
5019.881,3.731012
5021.81,3.735539
5023.738,3.742625
5025.667,3.748614
5027.596,3.753933
5029.524,3.756932
5031.452,3.763144
5033.381,3.766035
5035.31,3.768239
5037.238,3.770077
5039.167,3.770226
5041.095,3.770949
5043.023,3.773558
5044.952,3.775659
5046.88,3.773744
5048.809,3.772281
5050.737,3.76757
5052.666,3.762118
5054.595,3.760315
5056.523,3.753877
5058.451,3.747546
5060.38,3.744858
5062.309,3.739554
5064.237,3.736128
5066.166,3.735977
5068.094,3.736577
5070.022,3.738978
5071.951,3.739003
5073.879,3.738663
5075.808,3.738792
5077.736,3.736401
5079.665,3.736265
5081.593,3.734179
5083.522,3.732696
5085.45,3.730986
5087.379,3.726184
5089.308,3.724457
5091.236,3.721209
5093.165,3.715969
5095.093,3.714188
5097.021,3.712547
5098.95,3.712154
5100.878,3.712549
5102.807,3.711322
5104.735,3.712872
5106.664,3.718148
5108.592,3.721109
5110.521,3.725613
5112.449,3.72909
5114.378,3.730086
5116.307,3.732061
5118.235,3.736604
5120.163,3.738989
5122.092,3.742625
5124.021,3.746947
5125.949,3.751572
5127.877,3.75396
5129.806,3.754557
5131.734,3.756981
5133.663,3.755419
5135.591,3.754989
5137.52,3.755312
5139.448,3.75297
5141.377,3.750279
5143.305,3.745703
5145.234,3.740967
5147.162,3.736385
5149.091,3.732889
5151.02,3.724944
5152.948,3.720104
5154.876,3.71693
5156.805,3.714772
5158.733,3.714015
5160.662,3.711163
5162.59,3.712664
5164.519,3.709444
5166.447,3.709229
5168.376,3.714333
5170.304,3.71175
5172.233,3.709324
5174.161,3.707239
5176.09,3.703851
5178.019,3.703073
5179.947,3.701912
5181.875,3.700264
5183.804,3.706197
5185.732,3.698068
5187.661,3.69926
5189.589,3.697148
5191.518,3.695746
5193.446,3.701941
5195.375,3.710606
5197.303,3.705601
5199.232,3.700674
5201.16,3.706517
5203.089,3.714122
5205.018,3.727408
5206.946,3.713794
5208.874,3.702378
5210.803,3.698678
5212.731,3.702851
5214.66,3.705196
5216.588,3.70803
5218.517,3.70314
5220.445,3.702114
5222.374,3.713561
5224.302,3.726311
5226.231,3.709004
5228.159,3.70875
5230.088,3.72165
5232.016,3.719193
5233.945,3.71801
5235.873,3.71743
5237.802,3.721703
5239.73,3.719874
5241.659,3.730289
5243.587,3.739566
5245.516,3.738746
5247.444,3.745655
5249.373,3.727832
5251.301,3.735433
5253.229,3.751035
5255.158,3.739584
5257.087,3.733721
5259.015,3.747307
5260.944,3.752812
5262.872,3.754709
5264.801,3.738204
5266.729,3.743725
5268.658,3.74111
5270.586,3.73008
5272.515,3.731167
5274.443,3.731977
5276.372,3.728905
5278.3,3.734859
5280.229,3.734689
5282.157,3.736606
5284.086,3.743021
5286.014,3.73834
5287.943,3.745535
5289.871,3.745563
5291.8,3.728953
5293.729,3.731134
5295.657,3.728272
5297.585,3.73243
5299.514,3.72558
5301.442,3.715125
5303.371,3.711095
5305.299,3.717829
5307.228,3.713845
5309.156,3.700921
5311.085,3.706649
5313.013,3.712316
5314.941,3.72376
5316.87,3.732102
5318.799,3.743189
5320.727,3.75421
5322.656,3.761524
5324.584,3.772826
5326.513,3.780348
5328.441,3.764145
5330.37,3.77255
5332.298,3.768508
5334.227,3.764227
5336.155,3.780121
5338.084,3.762947
5340.012,3.729407
5341.94,3.742652
5343.869,3.735237
5345.798,3.696277
5347.726,3.690875
5349.655,3.675801
5351.583,3.681784
5353.512,3.662104
5355.44,3.630867
5357.369,3.625312
5359.297,3.618013
5361.226,3.61538
5363.154,3.605856
5365.083,3.587357
5367.011,3.575698
5368.939,3.565596
5370.868,3.558601
5372.797,3.555398
5374.725,3.55219
5376.654,3.536608
5378.582,3.520129
5380.511,3.520863
5382.439,3.518294
5384.368,3.519375
5386.296,3.497222
5388.225,3.487986
5390.153,3.487828
5392.082,3.489633
5394.01,3.471634
5395.938,3.455401
5397.867,3.441134
5399.796,3.433067
5401.724,3.42621
5403.652,3.413592
5405.581,3.399544
5407.51,3.398465
5409.438,3.388134
5411.367,3.368396
5413.295,3.353703
5415.224,3.320472
5417.152,3.313867
5419.081,3.30794
5421.009,3.301887
5422.938,3.294402
5424.866,3.291827
5426.795,3.299883
5428.723,3.289067
5430.651,3.269863
5432.58,3.281138
5434.509,3.27423
5436.437,3.257998
5438.366,3.265991
5440.294,3.270688
5442.223,3.256073
5444.151,3.263229
5446.08,3.248967
5448.008,3.249467
5449.937,3.243387
5451.865,3.234229
5453.793,3.236653
5455.722,3.234506
5457.65,3.231586
5459.579,3.233824
5461.508,3.223684
5463.436,3.223072
5465.365,3.218914
5467.293,3.215969
5469.222,3.20992
5471.15,3.204723
5473.079,3.211772
5475.007,3.202998
5476.936,3.180243
5478.864,3.182988
5480.792,3.175448
5482.721,3.172853
5484.649,3.170837
5486.578,3.171188
5488.507,3.164864
5490.435,3.165673
5492.363,3.165084
5494.292,3.152803
5496.221,3.15485
5498.149,3.155074
5500.078,3.156235
5502.006,3.161031
5503.935,3.164999
5505.863,3.171454
5507.792,3.168504
5509.72,3.164695
5511.648,3.172362
5513.577,3.172649
5515.505,3.174213
5517.434,3.1733
5519.362,3.173611
5521.291,3.174116
5523.22,3.176387
5525.148,3.175981
5527.077,3.174145
5529.005,3.170839
5530.934,3.17122
5532.862,3.172864
5534.791,3.174929
5536.719,3.170993
5538.647,3.166325
5540.576,3.166
5542.504,3.164272
5544.433,3.16253
5546.361,3.16482
5548.29,3.16329
5550.219,3.159064
5552.147,3.158086
5554.076,3.157598
5556.004,3.157805
5557.933,3.160211
5559.861,3.165374
5561.79,3.170146
5563.718,3.176151
5565.646,3.179381
5567.575,3.183159
5569.503,3.187539
5571.432,3.193887
5573.36,3.202482
5575.289,3.209762
5577.218,3.217698
5579.146,3.225669
5581.074,3.232826
5583.003,3.236404
5584.932,3.243566
5586.86,3.250147
5588.789,3.24983
5590.717,3.248832
5592.646,3.247518
5594.574,3.245435
5596.502,3.241886
5598.431,3.238241
5600.359,3.232532
5602.288,3.226551
5604.216,3.216623
5606.145,3.207162
5608.073,3.199755
5610.002,3.189262
5611.931,3.182739
5613.859,3.174417
5615.788,3.166828
5617.716,3.159044
5619.645,3.150465
5621.573,3.142964
5623.501,3.134711
5625.43,3.125337
5627.358,3.120891
5629.287,3.112995
5631.215,3.107114
5633.144,3.102654
5635.072,3.097549
5637.001,3.08992
5638.93,3.082483
5640.858,3.071771
5642.786,3.061689
5644.715,3.048256
5646.644,3.037354
5648.572,3.026064
5650.5,3.01363
5652.429,3.003104
5654.357,2.99273
5656.286,2.986474
5658.214,2.981303
5660.143,2.976962
5662.071,2.97597
5664.0,2.975825
5665.929,2.974411
5667.857,2.978548
5669.785,2.982027
5671.714,2.983167
5673.643,2.983981
5675.571,2.987269
5677.5,2.991059
5679.428,2.998078
5681.356,3.006492
5683.285,3.007938
5685.213,3.008517
5687.142,3.014881
5689.07,3.021835
5690.999,3.029441
5692.927,3.03407
5694.856,3.038965
5696.784,3.045794
5698.713,3.058443
5700.642,3.068147
5702.57,3.074257
5704.499,3.083271
5706.427,3.093138
5708.355,3.102213
5710.284,3.108087
5712.212,3.114463
5714.141,3.118549
5716.069,3.115065
5717.998,3.115105
5719.926,3.117287
5721.855,3.105481
5723.783,3.093538
5725.712,3.080132
5727.641,3.061137
5729.569,3.047107
5731.497,3.040114
5733.426,3.03585
5735.354,3.034999
5737.283,3.03127
5739.211,3.024629
5741.14,3.019247
5743.068,3.01381
5744.997,3.005184
5746.925,2.996994
5748.854,2.991476
5750.782,2.990222
5752.711,2.986573
5754.639,2.978464
5756.568,2.975324
5758.496,2.97352
5760.425,2.970903
5762.354,2.969481
5764.282,2.969989
5766.21,2.967309
5768.139,2.962548
5770.067,2.963963
5771.996,2.963774
5773.924,2.959697
5775.853,2.961489
5777.781,2.962018
5779.71,2.964072
5781.638,2.967439
5783.567,2.967029
5785.495,2.967369
5787.424,2.968553
5789.353,2.965154
5791.281,2.969709
5793.209,2.973471
5795.138,2.973454
5797.066,2.972897
5798.995,2.974563
5800.923,2.972852
5802.852,2.975681
5804.78,2.978145
5806.709,2.979245
5808.637,2.980064
5810.566,2.982704
5812.494,2.987506
5814.423,2.988473
5816.352,2.989287
5818.28,2.99241
5820.208,2.993996
5822.137,2.997565
5824.065,3.002832
5825.994,3.004425
5827.922,3.008354
5829.851,3.01435
5831.779,3.019792
5833.708,3.0233
5835.636,3.031654
5837.565,3.038825
5839.493,3.042639
5841.422,3.047241
5843.35,3.059139
5845.279,3.072062
5847.207,3.081121
5849.136,3.093934
5851.064,3.112436
5852.993,3.133229
5854.921,3.153715
5856.85,3.174682
5858.778,3.201485
5860.707,3.23513
5862.635,3.267378
5864.563,3.304115
5866.492,3.348615
5868.421,3.390384
5870.349,3.434526
5872.278,3.486052
5874.206,3.540007
5876.135,3.598636
5878.063,3.663614
5879.992,3.72487
5881.92,3.785994
5883.849,3.847008
5885.777,3.909729
5887.706,3.970947
5889.634,4.026493
5891.563,4.078157
5893.491,4.11969
5895.42,4.157279
5897.348,4.193704
5899.277,4.222894
5901.205,4.253844
5903.134,4.293061
5905.063,4.33445
5906.991,4.377336
5908.919,4.431265
5910.848,4.489847
5912.776,4.551441
5914.705,4.624377
5916.633,4.703305
5918.562,4.783597
5920.49,4.873163
5922.419,4.963325
5924.347,5.05766
5926.276,5.153678
5928.204,5.248652
5930.133,5.339352
5932.061,5.429224
5933.99,5.513266
5935.918,5.597833
5937.847,5.674854
5939.775,5.752867
5941.704,5.824783
5943.632,5.890967
5945.561,5.95824
5947.489,6.021464
5949.418,6.083735
5951.346,6.146784
5953.274,6.207618
5955.203,6.268667
5957.132,6.328203
5959.06,6.390446
5960.989,6.450873
5962.917,6.514979
5964.846,6.577478
5966.774,6.640098
5968.703,6.701137
5970.631,6.760067
5972.56,6.816723
5974.488,6.878527
5976.417,6.930686
5978.345,6.986219
5980.273,7.040257
5982.202,7.087265
5984.131,7.13665
5986.059,7.185303
5987.988,7.231155
5989.916,7.280362
5991.845,7.326028
5993.773,7.371068
5995.702,7.417615
5997.63,7.460837
5999.559,7.497474
6001.487,7.538851
6003.416,7.579867
6005.344,7.62367
6007.272,7.663417
6009.201,7.701301
6011.13,7.738014
6013.058,7.779952
6014.986,7.815854
6016.915,7.852086
6018.844,7.889493
6020.772,7.923759
6022.701,7.957872
6024.629,7.996182
6026.558,8.024597
6028.486,8.053749
6030.415,8.084999
6032.343,8.116077
6034.271,8.144184
6036.2,8.17349
6038.129,8.202711
6040.057,8.227742
6041.985,8.249411
6043.914,8.277435
6045.843,8.302382
6047.771,8.324644
6049.7,8.345967
6051.628,8.3725
6053.557,8.394601
6055.485,8.416159
6057.414,8.436496
6059.342,8.456673
6061.271,8.475868
6063.199,8.499001
6065.128,8.513758
6067.056,8.527809
6068.984,8.54853
6070.913,8.569896
6072.842,8.582293
6074.77,8.598655
6076.698,8.614285
6078.627,8.630994
6080.556,8.645278
6082.484,8.659365
6084.413,8.669207
6086.341,8.683311
6088.27,8.693196
6090.198,8.706361
6092.126,8.719629
6094.055,8.726406
6095.983,8.731762
6097.912,8.741555
6099.841,8.752586
6101.769,8.764354
6103.697,8.770399
6105.626,8.782458
6107.555,8.793483
6109.483,8.805319
6111.412,8.812018
6113.34,8.82079
6115.269,8.830658
6117.197,8.842788
6119.125,8.84989
6121.054,8.863027
6122.982,8.879232
6124.911,8.898982
6126.84,8.912999
6128.768,8.927478
6130.696,8.943804
6132.625,8.960799
6134.554,8.974717
6136.482,8.99224
6138.41,9.008774
6140.339,9.025539
6142.268,9.039311
6144.196,9.056445
6146.125,9.07018
6148.053,9.083944
6149.981,9.098921
6151.91,9.118962
6153.839,9.135329
6155.767,9.148618
6157.695,9.164136
6159.624,9.179479
6161.553,9.193973
6163.481,9.211338
6165.409,9.22436
6167.338,9.241899
6169.267,9.258391
6171.195,9.274076
6173.124,9.288267
6175.052,9.305055
6176.98,9.317203
6178.909,9.330175
6180.837,9.344296
6182.766,9.356371
6184.694,9.365306
6186.623,9.377087
6188.552,9.385136
6190.48,9.392942
6192.408,9.40134
6194.337,9.407493
6196.266,9.417941
6198.194,9.434844
6200.123,9.441592
6202.051,9.450992
6203.979,9.45816
6205.908,9.464913
6207.836,9.470991
6209.765,9.481442
6211.693,9.491022
6213.622,9.499811
6215.551,9.508231
6217.479,9.515531
6219.407,9.51887
6221.336,9.52342
6223.265,9.534196
6225.193,9.541673
6227.121,9.542351
6229.05,9.548673
6230.979,9.558777
6232.907,9.568785
6234.835,9.571716
6236.764,9.571989
6238.692,9.569651
6240.621,9.576937
6242.549,9.581596
6244.478,9.583034
6246.406,9.582134
6248.335,9.591269
6250.264,9.5954
6252.192,9.594235
6254.12,9.59799
6256.049,9.603269
6257.978,9.605324
6259.906,9.606417
6261.834,9.610525
6263.763,9.614336
6265.691,9.614838
6267.62,9.617373
6269.548,9.617026
6271.477,9.620852
6273.405,9.625509
6275.334,9.630351
6277.263,9.630062
6279.191,9.63408
6281.119,9.637362
6283.048,9.640044
6284.977,9.63967
6286.905,9.642142
6288.833,9.642766
6290.762,9.643353
6292.69,9.643985
6294.619,9.643035
6296.547,9.643333
6298.476,9.648893
6300.404,9.65366
6302.333,9.654483
6304.262,9.652265
6306.19,9.656469
6308.118,9.658266
6310.047,9.656867
6311.976,9.652466
6313.904,9.655179
6315.832,9.655979
6317.761,9.655328
6319.689,9.649506
6321.618,9.648488
6323.546,9.647503
6325.475,9.644859
6327.403,9.637633
6329.332,9.635947
6331.26,9.635575
6333.189,9.629301
6335.117,9.620311
6337.046,9.621227
6338.975,9.619594
6340.903,9.617267
6342.831,9.607124
6344.76,9.599156
6346.688,9.592386
6348.617,9.586401
6350.545,9.57738
6352.474,9.568681
6354.402,9.56078
6356.331,9.556378
6358.259,9.54567
6360.188,9.5365
6362.116,9.530595
6364.045,9.520473
6365.974,9.502403
6367.902,9.486784
6369.83,9.473825
6371.759,9.458257
6373.688,9.443898
6375.616,9.43375
6377.544,9.421639
6379.473,9.412949
6381.401,9.407264
6383.33,9.403089
6385.258,9.392637
6387.187,9.387873
6389.115,9.382536
6391.044,9.378907
6392.973,9.37529
6394.901,9.368997
6396.829,9.359896
6398.758,9.347704
6400.687,9.331211
6402.615,9.322179
6404.543,9.306902
6406.472,9.289283
6408.4,9.269488
6410.329,9.248697
6412.257,9.23271
6414.186,9.21617
6416.114,9.197446
6418.043,9.183221
6419.971,9.167715
6421.9,9.159154
6423.828,9.148643
6425.757,9.139966
6427.686,9.132384
6429.614,9.126198
6431.542,9.116195
6433.471,9.105953
6435.399,9.09564
6437.328,9.082477
6439.256,9.061131
6441.185,9.038988
6443.113,9.017881
6445.042,8.997599
6446.97,8.972367
6448.898,8.944844
6450.827,8.920753
6452.756,8.891753
6454.685,8.860876
6456.613,8.828549
6458.541,8.78856
6460.47,8.746069
6462.398,8.695385
6464.327,8.638099
6466.255,8.572253
6468.184,8.496393
6470.112,8.419251
6472.041,8.339063
6473.969,8.251882
6475.897,8.171664
6477.826,8.103417
6479.755,8.050982
6481.684,8.018801
6483.612,8.006926
6485.54,8.008906
6487.469,8.019109
6489.397,8.03656
6491.326,8.066023
6493.254,8.093383
6495.183,8.120864
6497.111,8.145436
6499.04,8.169488
6500.968,8.193951
6502.896,8.2162
6504.825,8.237309
6506.754,8.260344
6508.682,8.281044
6510.61,8.301952
6512.539,8.314888
6514.468,8.335256
6516.396,8.346331
6518.325,8.358824
6520.253,8.367817
6522.182,8.376794
6524.11,8.388116
6526.039,8.402979
6527.967,8.414112
6529.896,8.424158
6531.824,8.431978
6533.753,8.437836
6535.681,8.440854
6537.609,8.452676
6539.538,8.461647
6541.467,8.472146
6543.396,8.476491
6545.324,8.481354
6547.252,8.485106
6549.181,8.493306
6551.109,8.499559
6553.038,8.50443
6554.966,8.510293
6556.895,8.515925
6558.823,8.517699
6560.752,8.52202
6562.68,8.530031
6564.608,8.54193
6566.537,8.551719
6568.466,8.55991
6570.394,8.563873
6572.323,8.575203
6574.251,8.584762
6576.18,8.590251
6578.108,8.597407
6580.037,8.60828
6581.965,8.611404
6583.894,8.614644
6585.822,8.613546
6587.751,8.614067
6589.679,8.615283
6591.607,8.619933
6593.536,8.623254
6595.465,8.623128
6597.393,8.622811
6599.321,8.624995
6601.25,8.626545
6603.179,8.625312
6605.107,8.62176
6607.036,8.619299
6608.964,8.621387
6610.893,8.620502
6612.821,8.613053
6614.75,8.611602
6616.678,8.607309
6618.606,8.604078
6620.535,8.604036
6622.464,8.603559
6624.392,8.59609
6626.32,8.590642
6628.249,8.585347
6630.178,8.575579
6632.106,8.572886
6634.035,8.565577
6635.963,8.555322
6637.892,8.552536
6639.82,8.551081
6641.749,8.5441
6643.677,8.532485
6645.605,8.523232
6647.534,8.518432
6649.463,8.511266
6651.391,8.501903
6653.319,8.496044
6655.248,8.481807
6657.177,8.473358
6659.105,8.464752
6661.034,8.45444
6662.962,8.439393
6664.891,8.427581
6666.819,8.414257
6668.748,8.40746
6670.676,8.400717
6672.604,8.395186
6674.533,8.379156
6676.462,8.364647
6678.39,8.348175
6680.318,8.337987
6682.247,8.327636
6684.176,8.318464
6686.104,8.301361
6688.032,8.289472
6689.961,8.272289
6691.89,8.254261
6693.818,8.238964
6695.747,8.22538
6697.675,8.211744
6699.604,8.195602
6701.532,8.178498
6703.46,8.165317
6705.389,8.149648
6707.317,8.13409
6709.246,8.110872
6711.175,8.092886
6713.103,8.077538
6715.031,8.05904
6716.96,8.033976
6718.889,8.017265
6720.817,8.003079
6722.746,7.989609
6724.674,7.977896
6726.603,7.960285
6728.531,7.9372
6730.459,7.923049
6732.388,7.906063
6734.316,7.890471
6736.245,7.877166
6738.174,7.857009
6740.102,7.8409
6742.03,7.827101
6743.959,7.805795
6745.888,7.786845
6747.816,7.768734
6749.745,7.755466
6751.673,7.741796
6753.602,7.724167
6755.53,7.700823
6757.458,7.685749
6759.387,7.668315
6761.315,7.653193
6763.244,7.640023
6765.173,7.625202
6767.101,7.602352
6769.029,7.578535
6770.958,7.555756
6772.887,7.53254
6774.815,7.510657
6776.743,7.484375
6778.672,7.457053
6780.601,7.431532
6782.529,7.400364
6784.458,7.374612
6786.386,7.351096
6788.314,7.319297
6790.243,7.283396
6792.171,7.25281
6794.1,7.22421
6796.028,7.196082
6797.957,7.165393
6799.886,7.130334
6801.814,7.093703
6803.742,7.060701
6805.671,7.025984
6807.6,7.001796
6809.528,6.970192
6811.457,6.937961
6813.385,6.907353
6815.313,6.877633
6817.242,6.840613
6819.17,6.804065
6821.099,6.772439
6823.027,6.743812
6824.956,6.708633
6826.885,6.676668
6828.813,6.642965
6830.741,6.610955
6832.67,6.582588
6834.599,6.55477
6836.527,6.531636
6838.455,6.51855
6840.384,6.501044
6842.313,6.486122
6844.241,6.467273
6846.169,6.455085
6848.098,6.43947
6850.026,6.417807
6851.955,6.404069
6853.884,6.390381
6855.812,6.368873
6857.74,6.345668
6859.669,6.332628
6861.598,6.317326
6863.526,6.298668
6865.454,6.27874
6867.383,6.257151
6869.312,6.236505
6871.24,6.218193
6873.168,6.197005
6875.097,6.176847
6877.025,6.156563
6878.954,6.134343
6880.882,6.111087
6882.811,6.082713
6884.739,6.054944
6886.668,6.027633
6888.597,6.008319
6890.525,5.982974
6892.453,5.954486
6894.382,5.927291
6896.311,5.906681
6898.239,5.887145
6900.167,5.867213
6902.096,5.849008
6904.024,5.827879
6905.953,5.809804
6907.881,5.796459
6909.81,5.778893
6911.738,5.761127
6913.667,5.748054
6915.596,5.73419
6917.524,5.706618
6919.452,5.68041
6921.381,5.65439
6923.31,5.631456
6925.238,5.607229
6927.166,5.581901
6929.095,5.550523
6931.023,5.516385
6932.952,5.487046
6934.88,5.457708
6936.809,5.421937
6938.737,5.38349
6940.666,5.35464
6942.594,5.324504
6944.523,5.29517
6946.451,5.269929
6948.38,5.248353
6950.309,5.230617
6952.237,5.218313
6954.165,5.215404
6956.094,5.206427
6958.022,5.201825
6959.951,5.203645
6961.879,5.2007
6963.808,5.196037
6965.736,5.19243
6967.665,5.189489
6969.593,5.190524
6971.521,5.192703
6973.45,5.192274
6975.379,5.185459
6977.308,5.178306
6979.236,5.176408
6981.164,5.175659
6983.093,5.170198
6985.021,5.166799
6986.95,5.15996
6988.878,5.148839
6990.807,5.140731
6992.735,5.136589
6994.664,5.12711
6996.592,5.115272
6998.521,5.10006
7000.449,5.088206
7002.378,5.075266
7004.307,5.064355
7006.235,5.048584
7008.163,5.029761
7010.092,5.014205
7012.021,5.000614
7013.949,4.984056
7015.877,4.966832
7017.806,4.953088
7019.734,4.950922
7021.663,4.948798
7023.591,4.936009
7025.52,4.924615
7027.448,4.920698
7029.377,4.93011
7031.305,4.941152
7033.234,4.942514
7035.162,4.939715
7037.091,4.936813
7039.02,4.938666
7040.948,4.937029
7042.876,4.931007
7044.805,4.921022
7046.733,4.900388
7048.662,4.865024
7050.59,4.837533
7052.519,4.8086
7054.447,4.768435
7056.376,4.726346
7058.304,4.691453
7060.232,4.662715
7062.161,4.645987
7064.09,4.640543
7066.019,4.656594
7067.947,4.678637
7069.875,4.711304
7071.804,4.751129
7073.732,4.798209
7075.661,4.846504
7077.589,4.896174
7079.518,4.947584
7081.446,4.986365
7083.375,5.021621
7085.303,5.05399
7087.231,5.080424
7089.16,5.109859
7091.089,5.13721
7093.018,5.165692
7094.946,5.189575
7096.874,5.211622
7098.803,5.237787
7100.731,5.261951
7102.66,5.298527
7104.588,5.345699
7106.517,5.375003
7108.445,5.402336
7110.374,5.438434
7112.302,5.473092
7114.23,5.5142
7116.159,5.565887
7118.088,5.575216
7120.016,5.598588
7121.944,5.62963
7123.873,5.653553
7125.802,5.667935
7127.73,5.672644
7129.659,5.681559
7131.587,5.683253
7133.516,5.680495
7135.444,5.663277
7137.373,5.650216
7139.301,5.618894
7141.229,5.584563
7143.158,5.565441
7145.087,5.517081
7147.015,5.463605
7148.943,5.417145
7150.872,5.358856
7152.801,5.284282
7154.729,5.201707
7156.658,5.102077
7158.586,5.006076
7160.515,4.879672
7162.443,4.728487
7164.372,4.612641
7166.3,4.492475
7168.229,4.390472
7170.157,4.316234
7172.086,4.294885
7174.014,4.294558
7175.942,4.32127
7177.871,4.373442
7179.8,4.449518
7181.729,4.514771
7183.657,4.586752
7185.585,4.666399
7187.514,4.745294
7189.442,4.833117
7191.371,4.914115
7193.299,4.997874
7195.228,5.071096
7197.156,5.156928
7199.085,5.241958
7201.013,5.331617
7202.941,5.417972
7204.87,5.486959
7206.799,5.556451
7208.727,5.646487
7210.655,5.725194
7212.584,5.794475
7214.513,5.857377
7216.441,5.932139
7218.37,6.011332
7220.298,6.074196
7222.227,6.145471
7224.155,6.231748
7226.083,6.306339
7228.012,6.378759
7229.94,6.47513
7231.869,6.535333
7233.798,6.568693
7235.726,6.643237
7237.654,6.709752
7239.583,6.795751
7241.512,6.86501
7243.44,6.89248
7245.369,6.945615
7247.297,7.016544
7249.226,7.07847
7251.154,7.158573
7253.083,7.216362
7255.011,7.270912
7256.939,7.329508
7258.868,7.392585
7260.797,7.463483
7262.725,7.515141
7264.653,7.572295
7266.582,7.642569
7268.511,7.695796
7270.439,7.75741
7272.368,7.827849
7274.296,7.885818
7276.225,7.940053
7278.153,8.003254
7280.082,8.06491
7282.01,8.119117
7283.938,8.183965
7285.867,8.256177
7287.796,8.303467
7289.724,8.353335
7291.652,8.426567
7293.581,8.48116
7295.51,8.512451
7297.438,8.594368
7299.366,8.637125
7301.295,8.674273
7303.224,8.738069
7305.152,8.817777
7307.081,8.85189
7309.009,8.912106
7310.938,8.971011
7312.866,9.006546
7314.794,9.068809
7316.723,9.109734
7318.651,9.15405
7320.58,9.209214
7322.509,9.264271
7324.437,9.289954
7326.365,9.351533
7328.294,9.353796
7330.223,9.381657
7332.151,9.408942
7334.08,9.442699
7336.008,9.470961
7337.937,9.526614
7339.865,9.535816
7341.793,9.542988
7343.722,9.556725
7345.65,9.579966
7347.579,9.608757
7349.508,9.611211
7351.436,9.647337
7353.364,9.69098
7355.293,9.708972
7357.222,9.722834
7359.15,9.773939
7361.079,9.797929
7363.007,9.829036
7364.936,9.859056
7366.864,9.904389
7368.792,9.927402
7370.721,9.950167
7372.649,9.991612
7374.578,10.02942
7376.507,10.03461
7378.435,10.08214
7380.363,10.11373
7382.292,10.1301
7384.221,10.15311
7386.149,10.1756
7388.077,10.19838
7390.006,10.21951
7391.935,10.23647
7393.863,10.24936
7395.792,10.27024
7397.72,10.2948
7399.648,10.29998
7401.577,10.31223
7403.505,10.33232
7405.434,10.34327
7407.362,10.34513
7409.291,10.36585
7411.22,10.37763
7413.148,10.38379
7415.076,10.38934
7417.005,10.40283
7418.934,10.40467
7420.862,10.41113
7422.791,10.41686
7424.719,10.42847
7426.647,10.43515
7428.576,10.43831
7430.504,10.442
7432.433,10.4407
7434.361,10.44331
7436.29,10.4556
7438.219,10.46229
7440.147,10.46455
7442.075,10.46459
7444.004,10.4678
7445.933,10.47371
7447.861,10.48349
7449.789,10.49285
7451.718,10.49459
7453.646,10.49994
7455.575,10.50464
7457.503,10.5078
7459.432,10.51612
7461.36,10.51692
7463.289,10.51409
7465.218,10.51533
7467.146,10.51932
7469.074,10.52426
7471.003,10.52265
7472.932,10.52007
7474.86,10.52088
7476.788,10.52475
7478.717,10.52478
7480.646,10.52538
7482.574,10.53112
7484.502,10.53293
7486.431,10.54144
7488.359,10.53661
7490.288,10.53243
7492.216,10.53352
7494.145,10.5351
7496.073,10.53347
7498.002,10.52628
7499.931,10.52466
7501.859,10.5218
7503.787,10.5178
7505.716,10.52161
7507.645,10.51789
7509.573,10.5158
7511.501,10.51404
7513.43,10.51567
7515.358,10.51462
7517.287,10.51388
7519.215,10.51514
7521.144,10.51097
7523.072,10.51194
7525.001,10.51264
7526.93,10.50431
7528.858,10.49981
7530.786,10.50406
7532.715,10.50273
7534.644,10.49749
7536.572,10.49387
7538.5,10.4918
7540.429,10.49206
7542.357,10.48567
7544.286,10.47995
7546.214,10.4774
7548.143,10.47522
7550.071,10.46652
7552.0,10.4604
7553.928,10.46084
7555.857,10.45892
7557.785,10.44973
7559.714,10.44303
7561.643,10.44873
7563.571,10.44952
7565.499,10.4384
7567.428,10.43404
7569.356,10.42774
7571.285,10.42242
7573.213,10.41918
7575.142,10.41493
7577.07,10.4101
7578.999,10.40665
7580.927,10.40214
7582.855,10.39706
7584.784,10.39004
7586.713,10.38881
7588.642,10.38846
7590.57,10.38109
7592.498,10.37376
7594.427,10.36407
7596.355,10.35449
7598.284,10.34954
7600.212,10.34983
7602.141,10.35188
7604.069,10.34094
7605.998,10.33104
7607.926,10.32275
7609.854,10.31417
7611.783,10.31081
7613.712,10.30465
7615.641,10.29412
7617.569,10.2871
7619.497,10.2754
7621.426,10.26511
7623.354,10.26155
7625.283,10.25453
7627.211,10.2379
7629.14,10.23007
7631.068,10.22779
7632.997,10.22052
7634.925,10.21394
7636.854,10.20261
7638.782,10.18598
7640.711,10.17592
7642.639,10.16723
7644.568,10.16482
7646.496,10.16373
7648.425,10.15317
7650.354,10.14577
7652.282,10.14014
7654.21,10.12682
7656.139,10.11654
7658.067,10.10936
7659.996,10.10825
7661.924,10.09753
7663.853,10.08772
7665.781,10.08496
7667.71,10.07483
7669.638,10.06256
7671.566,10.0542
7673.495,10.05353
7675.424,10.04413
7677.353,10.03423
7679.281,10.03668
7681.209,10.03617
7683.138,10.02293
7685.066,10.01655
7686.995,10.01538
7688.923,10.01258
7690.852,10.00195
7692.78,9.997151
7694.709,9.993195
7696.637,9.997108
7698.565,9.991159
7700.494,9.983814
7702.423,9.974631
7704.352,9.964768
7706.28,9.956598
7708.208,9.947581
7710.137,9.944171
7712.065,9.939124
7713.994,9.939088
7715.922,9.93562
7717.851,9.924526
7719.779,9.916106
7721.708,9.908405
7723.636,9.903879
7725.564,9.899928
7727.493,9.881733
7729.422,9.867858
7731.35,9.868832
7733.279,9.866158
7735.207,9.865258
7737.136,9.863209
7739.064,9.856276
7740.993,9.847602
7742.921,9.846253
7744.85,9.844669
7746.778,9.836542
7748.707,9.828739
7750.635,9.819256
7752.563,9.808614
7754.492,9.799049
7756.421,9.799539
7758.349,9.788225
7760.277,9.774919
7762.206,9.770134
7764.135,9.762626
7766.063,9.75513
7767.992,9.746463
7769.92,9.74271
7771.849,9.735684
7773.777,9.729156
7775.706,9.725231
7777.634,9.713805
7779.563,9.706464
7781.491,9.704697
7783.42,9.709908
7785.348,9.702531
7787.276,9.693175
7789.205,9.689898
7791.134,9.680402
7793.063,9.670934
7794.991,9.672362
7796.919,9.665589
7798.848,9.653152
7800.776,9.650831
7802.705,9.643543
7804.633,9.630838
7806.562,9.62356
7808.49,9.621367
7810.419,9.61453
7812.347,9.605733
7814.275,9.599261
7816.204,9.592152
7818.133,9.57954
7820.061,9.571704
7821.989,9.564581
7823.918,9.554608
7825.847,9.548288
7827.775,9.539241
7829.704,9.530141
7831.632,9.516047
7833.561,9.509549
7835.489,9.502505
7837.417,9.495686
7839.346,9.486712
7841.274,9.475441
7843.203,9.465631
7845.132,9.456424
7847.06,9.450944
7848.988,9.440467
7850.917,9.428629
7852.846,9.420765
7854.774,9.408556
7856.703,9.387038
7858.631,9.371662
7860.56,9.367232
7862.488,9.353666
7864.417,9.332598
7866.345,9.326306
7868.273,9.322082
7870.202,9.312921
7872.131,9.300194
7874.059,9.282551
7875.987,9.262802
7877.916,9.256033
7879.845,9.237011
7881.773,9.216011
7883.702,9.203418
7885.63,9.195782
7887.559,9.190404
7889.487,9.171958
7891.416,9.152694
7893.344,9.137535
7895.272,9.118164
7897.201,9.109731
7899.13,9.126162
7901.058,9.098306
7902.986,9.061749
7904.915,9.037322
7906.844,9.020777
7908.772,9.007252
7910.7,8.991783
7912.629,8.976034
7914.558,8.961491
7916.486,8.944577
7918.415,8.924945
7920.343,8.903863
7922.271,8.887732
7924.2,8.87957
7926.128,8.865511
7928.057,8.835604
7929.985,8.814289
7931.914,8.795528
7933.843,8.77916
7935.771,8.759027
7937.699,8.737123
7939.628,8.719158
7941.557,8.699857
7943.485,8.671411
7945.414,8.650535
7947.342,8.628365
7949.271,8.606829
7951.199,8.587147
7953.127,8.569967
7955.056,8.550486
7956.984,8.52356
7958.913,8.499544
7960.842,8.475147
7962.77,8.450592
7964.698,8.432986
7966.627,8.409458
7968.556,8.390644
7970.484,8.358161
7972.413,8.329493
7974.341,8.309037
7976.27,8.286223
7978.198,8.258953
7980.126,8.239025
7982.055,8.20964
7983.983,8.180775
7985.912,8.152431
7987.841,8.125221
7989.769,8.099348
7991.697,8.078461
7993.626,8.054535
7995.555,8.030535
7997.483,8.000962
7999.411,7.968856
8001.34,7.933684
8003.269,7.906448
8005.197,7.878605
8007.125,7.856871
8009.054,7.834526
8010.982,7.804439
8012.911,7.769784
8014.839,7.73636
8016.768,7.709607
8018.696,7.672204
8020.625,7.637263
8022.554,7.602587
8024.482,7.573437
8026.41,7.545838
8028.339,7.510179
8030.268,7.474572
8032.196,7.438751
8034.125,7.412373
8036.053,7.378413
8037.981,7.346756
8039.91,7.312175
8041.838,7.281596
8043.767,7.254603
8045.695,7.214706
8047.624,7.170797
8049.553,7.133565
8051.481,7.10319
8053.409,7.065804
8055.338,7.026817
8057.267,6.984847
8059.195,6.947825
8061.124,6.914741
8063.052,6.875667
8064.98,6.82872
8066.909,6.795963
8068.837,6.762368
8070.766,6.72315
8072.694,6.680851
8074.623,6.644353
8076.552,6.603803
8078.48,6.556755
8080.408,6.513519
8082.337,6.481129
8084.266,6.438617
8086.194,6.392784
8088.122,6.345922
8090.051,6.298825
8091.979,6.259514
8093.908,6.224747
8095.836,6.18699
8097.765,6.135727
8099.693,6.093071
8101.622,6.053358
8103.551,6.010667
8105.479,5.965249
8107.407,5.917731
8109.336,5.87167
8111.265,5.822203
8113.192,5.776668
8115.121,5.729214
8117.05,5.681388
8118.979,5.636935
8120.907,5.590236
8122.835,5.539745
8124.764,5.489085
8126.692,5.437993
8128.621,5.399154
8130.55,5.349729
8132.478,5.292783
8134.406,5.241428
8136.335,5.19255
8138.264,5.147269
8140.191,5.100571
8142.12,5.051459
8144.049,5.000423
8145.978,4.946329
8147.906,4.892165
8149.834,4.84117
8151.763,4.797225
8153.691,4.755522
8155.62,4.701112
8157.548,4.660985
8159.477,4.616817
8161.405,4.56201
8163.334,4.512964
8165.263,4.471238
8167.19,4.414856
8169.119,4.374645
8171.048,4.332983
8172.977,4.288027
8174.905,4.245066
8176.833,4.204447
8178.762,4.165395
8180.69,4.127297
8182.619,4.087053
8184.547,4.052835
8186.476,4.011889
8188.404,3.98005
8190.333,3.956206
8192.262,3.930381
8194.189,3.897776
8196.118,3.871404
8198.047,3.843657
8199.976,3.82282
8201.903,3.805073
8203.832,3.785187
8205.761,3.770037
8207.689,3.753085
8209.618,3.741079
8211.546,3.732687
8213.475,3.719545
8215.403,3.706905
8217.332,3.703237
8219.261,3.702366
8221.188,3.704383
8223.117,3.704678
8225.046,3.702126
8226.975,3.687806
8228.902,3.687356
8230.831,3.687566
8232.76,3.685825
8234.688,3.688944
8236.617,3.693618
8238.545,3.697438
8240.474,3.704021
8242.402,3.70825
8244.331,3.70961
8246.259,3.709925
8248.188,3.716426
8250.116,3.717522
8252.045,3.72328
8253.974,3.729352
8255.901,3.747189
8257.83,3.752794
8259.759,3.759059
8261.688,3.762239
8263.616,3.770292
8265.544,3.78723
8267.473,3.80156
8269.401,3.816899
8271.33,3.83341
8273.258,3.850792
8275.187,3.870538
8277.115,3.897139
8279.044,3.913847
8280.973,3.927777
8282.9,3.948674
8284.829,3.971996
8286.758,3.996651
8288.687,4.022313
8290.614,4.045804
8292.543,4.071439
8294.472,4.102435
8296.4,4.127748
8298.329,4.158205
8300.257,4.187417
8302.186,4.207959
8304.114,4.229759
8306.043,4.258505
8307.972,4.285644
8309.899,4.317184
8311.828,4.359688
8313.757,4.393485
8315.686,4.414598
8317.613,4.437438
8319.542,4.462162
8321.471,4.484015
8323.399,4.518933
8325.328,4.558012
8327.256,4.583615
8329.185,4.609244
8331.113,4.632765
8333.042,4.658284
8334.97,4.694254
8336.898,4.733708
8338.827,4.755873
8340.756,4.79071
8342.685,4.82761
8344.612,4.85829
8346.541,4.890869
8348.47,4.930111
8350.398,4.96717
8352.327,5.000766
8354.255,5.03878
8356.184,5.072137
8358.112,5.09336
8360.041,5.129004
8361.969,5.169297
8363.897,5.209036
8365.826,5.242008
8367.755,5.265543
8369.684,5.302715
8371.611,5.339477
8373.54,5.368315
8375.469,5.398129
8377.397,5.430139
8379.325,5.461267
8381.254,5.490944
8383.183,5.524001
8385.111,5.559434
8387.04,5.577152
8388.968,5.592853
8390.896,5.627578
8392.825,5.654905
8394.754,5.665637
8396.683,5.681234
8398.61,5.700392
8400.539,5.705911
8402.468,5.714428
8404.396,5.726562
8406.324,5.73871
8408.253,5.752099
8410.182,5.769847
8412.11,5.777798
8414.039,5.782186
8415.967,5.799453
8417.896,5.812884
8419.824,5.815534
8421.753,5.825388
8423.681,5.836176
8425.609,5.85175
8427.538,5.878468
8429.467,5.905287
8431.396,5.940454
8433.323,5.963162
8435.252,5.994297
8437.181,6.030611
8439.109,6.071531
8441.037,6.116077
8442.966,6.16804
8444.895,6.2111
8446.823,6.259874
8448.752,6.312119
8450.68,6.367575
8452.608,6.417617
8454.537,6.454671
8456.466,6.501166
8458.395,6.544844
8460.322,6.574806
8462.251,6.604599
8464.18,6.650179
8466.108,6.690975
8468.036,6.7233
8469.965,6.745021
8471.894,6.776896
8473.822,6.823225
8475.751,6.858391
8477.679,6.895326
8479.607,6.932567
8481.536,6.971683
8483.465,7.007457
8485.393,7.048179
8487.321,7.086668
8489.25,7.127475
8491.179,7.169631
8493.107,7.19917
8495.035,7.22014
8496.964,7.243738
8498.893,7.271078
8500.821,7.287017
8502.75,7.305793
8504.678,7.334875
8506.606,7.355741
8508.535,7.370451
8510.464,7.386948
8512.392,7.39992
8514.32,7.420482
8516.249,7.438997
8518.178,7.456223
8520.106,7.476498
8522.034,7.502356
8523.963,7.526139
8525.892,7.532329
8527.82,7.545858
8529.748,7.565872
8531.677,7.569034
8533.605,7.569103
8535.534,7.58142
8537.463,7.589468
8539.391,7.574937
8541.319,7.556257
8543.248,7.546425
8545.177,7.52535
8547.105,7.507468
8549.033,7.491437
8550.962,7.459364
8552.891,7.418263
8554.819,7.391711
8556.747,7.361563
8558.676,7.331488
8560.604,7.30673
8562.533,7.287438
8564.462,7.278236
8566.39,7.294458
8568.318,7.321596
8570.247,7.355102
8572.176,7.403127
8574.104,7.446397
8576.032,7.483884
8577.961,7.517223
8579.89,7.573185
8581.818,7.630189
8583.746,7.6762
8585.675,7.724171
8587.604,7.789041
8589.532,7.852676
8591.461,7.916375
8593.389,7.978193
8595.317,8.038409
8597.246,8.089564
8599.175,8.145772
8601.103,8.214104
8603.031,8.274155
8604.96,8.317204
8606.889,8.379902
8608.817,8.452376
8610.745,8.511953
8612.674,8.563344
8614.603,8.615731
8616.531,8.67387
8618.459,8.734249
8620.388,8.798279
8622.316,8.848413
8624.245,8.889962
8626.174,8.935797
8628.102,8.983722
8630.03,9.022824
8631.959,9.071051
8633.888,9.125558
8635.816,9.162868
8637.744,9.198511
8639.673,9.236434
8641.602,9.26688
8643.53,9.29351
8645.458,9.330153
8647.387,9.361534
8649.315,9.395962
8651.244,9.427187
8653.173,9.458961
8655.101,9.483312
8657.029,9.504874
8658.958,9.54625
8660.887,9.582119
8662.814,9.602179
8664.743,9.612344
8666.672,9.63322
8668.601,9.655297
8670.529,9.671538
8672.457,9.703086
8674.386,9.732675
8676.314,9.74833
8678.243,9.766663
8680.172,9.795041
8682.1,9.813064
8684.028,9.836533
8685.957,9.855906
8687.886,9.881077
8689.813,9.909446
8691.742,9.931118
8693.671,9.967356
8695.6,10.00555
8697.528,10.01575
8699.456,10.0353
8701.385,10.07197
8703.313,10.1148
8705.242,10.14033
8707.17,10.17773
8709.099,10.2102
8711.027,10.24124
8712.956,10.28346
8714.885,10.31499
8716.813,10.34038
8718.741,10.37638
8720.67,10.39646
8722.599,10.41657
8724.527,10.44365
8726.455,10.47678
8728.384,10.51053
8730.313,10.54989
8732.241,10.5881
8734.169,10.61872
8736.098,10.63627
8738.026,10.66426
8739.955,10.69651
8741.884,10.71502
8743.812,10.73965
8745.74,10.7739
8747.669,10.79699
8749.598,10.82341
8751.525,10.84931
8753.454,10.88257
8755.383,10.91153
8757.312,10.92457
8759.24,10.92463
8761.168,10.94664
8763.097,10.97313
8765.025,10.99551
8766.954,11.01816
8768.882,11.02934
8770.811,11.04437
8772.739,11.06272
8774.668,11.07932
8776.597,11.10633
8778.524,11.1265
8780.453,11.15419
8782.382,11.16753
8784.311,11.17617
8786.239,11.18485
8788.167,11.20212
8790.096,11.22319
8792.024,11.23499
8793.953,11.23427
8795.881,11.24302
8797.81,11.25337
8799.738,11.27108
8801.667,11.27792
8803.596,11.28486
8805.523,11.31085
8807.452,11.32858
8809.381,11.33344
8811.31,11.33948
8813.237,11.34071
8815.166,11.35682
8817.095,11.36538
8819.023,11.36563
8820.952,11.3669
8822.88,11.37833
8824.809,11.38653
8826.737,11.39178
8828.666,11.40922
8830.595,11.41758
8832.522,11.41627
8834.451,11.42279
8836.38,11.41829
8838.309,11.41651
8840.236,11.42576
8842.165,11.42614
8844.094,11.42167
8846.022,11.44408
8847.951,11.45055
8849.879,11.43995
8851.808,11.43706
8853.736,11.45037
8855.665,11.46619
8857.593,11.46083
8859.521,11.46242
8861.45,11.46694
8863.379,11.47556
8865.308,11.48711
8867.235,11.47592
8869.164,11.47611
8871.093,11.47845
8873.021,11.47906
8874.95,11.47447
8876.878,11.47162
8878.807,11.4849
8880.735,11.50351
8882.664,11.50306
8884.592,11.50198
8886.521,11.49303
8888.449,11.48981
8890.378,11.50064
8892.307,11.51126
8894.234,11.49415
8896.163,11.49116
8898.092,11.50699
8900.021,11.50385
8901.948,11.48964
8903.877,11.49622
8905.806,11.49498
8907.734,11.48612
8909.663,11.48933
8911.591,11.49858
8913.52,11.50016
8915.448,11.48985
8917.377,11.48482
8919.306,11.48081
8921.233,11.48725
8923.162,11.49389
8925.091,11.48996
8927.02,11.48786
8928.947,11.4929
8930.876,11.48644
8932.805,11.46996
8934.733,11.45532
8936.662,11.46708
8938.59,11.47379
8940.519,11.46973
8942.447,11.45901
8944.376,11.45515
8946.304,11.46567
8948.232,11.47414
8950.161,11.47238
8952.09,11.47842
8954.019,11.4692
8955.946,11.46152
8957.875,11.45966
8959.804,11.46493
8961.732,11.47048
8963.661,11.47153
8965.589,11.46238
8967.518,11.46798
8969.446,11.47219
8971.375,11.46792
8973.303,11.473
8975.231,11.47291
8977.16,11.48178
8979.089,11.48153
8981.018,11.47707
8982.945,11.48464
8984.874,11.48939
8986.803,11.48131
8988.731,11.47519
8990.659,11.47852
8992.588,11.48222
8994.517,11.48182
8996.445,11.48416
8998.374,11.47323
9000.302,11.47602
9002.23,11.49965
9004.159,11.50217
9006.088,11.47942
9008.017,11.47575
9009.944,11.49156
9011.873,11.50026
9013.802,11.49796
9015.73,11.49759
9017.658,11.48256
9019.587,11.48241
9021.516,11.50751
9023.444,11.51703
9025.373,11.51148
9027.301,11.50126
9029.229,11.50397
9031.158,11.51113
9033.087,11.5179
9035.015,11.50832
9036.943,11.5079
9038.872,11.50908
9040.801,11.50842
9042.729,11.50683
9044.657,11.51335
9046.586,11.51945
9048.515,11.52717
9050.443,11.519
9052.372,11.51509
9054.3,11.52371
9056.229,11.5071
9058.157,11.51513
9060.086,11.53565
9062.014,11.53553
9063.942,11.52701
9065.871,11.52559
9067.8,11.5284
9069.729,11.52661
9071.656,11.52235
9073.585,11.52053
9075.514,11.50926
9077.442,11.51043
9079.37,11.52183
9081.299,11.5321
9083.228,11.52764
9085.156,11.52763
9087.085,11.5287
9089.013,11.53259
9090.941,11.52038
9092.87,11.51367
9094.799,11.52464
9096.727,11.52457
9098.655,11.51763
9100.584,11.53158
9102.513,11.54533
9104.441,11.54384
9106.369,11.53729
9108.298,11.53708
9110.227,11.52497
9112.155,11.5214
9114.084,11.52318
9116.012,11.52111
9117.94,11.50344
9119.869,11.50567
9121.798,11.50857
9123.726,11.51441
9125.654,11.51606
9127.583,11.51368
9129.512,11.50486
9131.44,11.50946
9133.368,11.50789
9135.297,11.51437
9137.226,11.51367
9139.154,11.51031
9141.082,11.50009
9143.011,11.48897
9144.939,11.49879
9146.868,11.50149
9148.797,11.49028
9150.725,11.48641
9152.653,11.49159
9154.582,11.50555
9156.511,11.50362
9158.439,11.49889
9160.367,11.48288
9162.296,11.4793
9164.225,11.46461
9166.153,11.47319
9168.081,11.48008
9170.01,11.46472
9171.938,11.46119
9173.867,11.47015
9175.796,11.4683
9177.724,11.46222
9179.652,11.44686
9181.581,11.45841
9183.51,11.4559
9185.438,11.44329
9187.366,11.43649
9189.295,11.44357
9191.224,11.45353
9193.152,11.45965
9195.08,11.45193
9197.009,11.4457
9198.938,11.432
9200.866,11.42193
9202.795,11.41912
9204.723,11.42731
9206.651,11.42021
9208.58,11.40556
9210.509,11.40693
9212.437,11.41365
9214.365,11.40717
9216.294,11.39564
9218.223,11.39832
9220.151,11.39891
9222.079,11.38984
9224.008,11.39066
9225.937,11.39808
9227.865,11.38888
9229.793,11.38651
9231.722,11.38908
9233.65,11.3841
9235.579,11.37824
9237.508,11.37354
9239.436,11.36629
9241.364,11.36433
9243.293,11.37002
9245.222,11.37661
9247.15,11.37813
9249.078,11.36218
9251.007,11.36457
9252.936,11.3784
9254.864,11.36431
9256.792,11.35884
9258.721,11.35837
9260.649,11.33768
9262.578,11.33991
9264.507,11.35126
9266.435,11.35062
9268.363,11.34902
9270.292,11.35499
9272.221,11.33983
9274.148,11.32666
9276.077,11.32564
9278.006,11.33118
9279.935,11.33186
9281.863,11.33033
9283.791,11.31367
9285.72,11.30418
9287.648,11.30613
9289.577,11.30394
9291.506,11.30894
9293.434,11.32601
9295.362,11.33076
9297.291,11.31512
9299.22,11.30963
9301.147,11.31254
9303.076,11.31898
9305.005,11.32176
9306.934,11.31576
9308.862,11.3113
9310.79,11.3139
9312.719,11.30974
9314.647,11.29845
9316.576,11.30658
9318.504,11.30865
9320.433,11.30707
9322.361,11.30882
9324.29,11.30445
9326.219,11.30883
9328.146,11.3054
9330.075,11.29909
9332.004,11.29821
9333.933,11.2867
9335.861,11.2705
9337.789,11.27972
9339.718,11.29762
9341.646,11.2992
9343.575,11.29173
9345.503,11.28252
9347.432,11.29108
9349.36,11.28249
9351.289,11.28269
9353.218,11.28837
9355.146,11.27322
9357.074,11.25499
9359.003,11.25919
9360.932,11.26929
9362.859,11.26043
9364.788,11.24531
9366.717,11.24429
9368.646,11.23967
9370.574,11.22953
9372.502,11.23826
9374.431,11.23518
9376.359,11.20781
9378.288,11.19536
9380.217,11.20434
9382.145,11.21072
9384.073,11.21075
9386.002,11.20287
9387.931,11.18294
9389.858,11.18164
9391.787,11.17845
9393.716,11.17646
9395.645,11.17302
9397.573,11.17792
9399.501,11.16745
9401.43,11.16281
9403.358,11.15196
9405.287,11.15683
9407.215,11.15397
9409.144,11.13866
9411.072,11.13386
9413.001,11.14507
9414.93,11.1454
9416.857,11.12564
9418.786,11.11096
9420.715,11.11498
9422.644,11.11732
9424.571,11.09929
9426.5,11.09938
9428.429,11.10228
9430.357,11.09499
9432.286,11.07665
9434.214,11.06675
9436.143,11.05567
9438.071,11.06
9440.0,11.05763
9441.929,11.05832
9443.856,11.05352
9445.785,11.03194
9447.714,11.02098
9449.643,11.02056
9451.57,11.02291
9453.499,11.02882
9455.428,11.01914
9457.356,11.00543
9459.285,10.99216
9461.213,10.99019
9463.142,10.98761
9465.07,10.98589
9466.999,10.98676
9468.927,10.9772
9470.855,10.96295
9472.784,10.95048
9474.713,10.93564
9476.642,10.93455
9478.569,10.94261
9480.498,10.94577
9482.427,10.95078
9484.355,10.9464
9486.284,10.94098
9488.212,10.92634
9490.141,10.9152
9492.069,10.91168
9493.998,10.91783
9495.926,10.91985
9497.854,10.92847
9499.783,10.91595
9501.712,10.90216
9503.641,10.89611
9505.568,10.89676
9507.497,10.89582
9509.426,10.89176
9511.354,10.8894
9513.282,10.88538
9515.211,10.87989
9517.14,10.88167
9519.068,10.87921
9520.997,10.86055
9522.925,10.84774
9524.854,10.8613
9526.782,10.86792
9528.711,10.84884
9530.64,10.84934
9532.567,10.85064
9534.496,10.84837
9536.425,10.83439
9538.354,10.8242
9540.281,10.8274
9542.21,10.82265
9544.139,10.79949
9546.067,10.78434
9547.996,10.79244
9549.924,10.79006
9551.853,10.7894
9553.781,10.77937
9555.71,10.76145
9557.638,10.75302
9559.566,10.75625
9561.495,10.76074
9563.424,10.75715
9565.353,10.75317
9567.28,10.74382
9569.209,10.73848
9571.138,10.7507
9573.066,10.75644
9574.995,10.75811
9576.923,10.74311
9578.852,10.73198
9580.78,10.72352
9582.709,10.69241
9584.637,10.7028
9586.565,10.73075
9588.494,10.71447
9590.423,10.69699
9592.352,10.70821
9594.279,10.71454
9596.208,10.7068
9598.137,10.70574
9600.065,10.7169
9601.993,10.71485
9603.922,10.70853
9605.851,10.71926
9607.779,10.73278
9609.708,10.73249
9611.636,10.73064
9613.564,10.72277
9615.493,10.72427
9617.422,10.75851
9619.351,10.76777
9621.278,10.77012
9623.207,10.75827
9625.136,10.74799
9627.064,10.74498
9628.992,10.7616
9630.921,10.76597
9632.85,10.77171
9634.778,10.80535
9636.707,10.81729
9638.635,10.80519
9640.563,10.80544
9642.492,10.81679
9644.421,10.81744
9646.349,10.83706
9648.277,10.84175
9650.206,10.84941
9652.135,10.85385
9654.063,10.85205
9655.991,10.86384
9657.92,10.87239
9659.849,10.88407
9661.777,10.89042
9663.706,10.88712
9665.634,10.87863
9667.563,10.89669
9669.491,10.92815
9671.42,10.93274
9673.348,10.92349
9675.276,10.93375
9677.205,10.95026
9679.134,10.94738
9681.063,10.96044
9682.99,10.99073
9684.919,11.00106
9686.848,11.00556
9688.776,11.00922
9690.704,11.00718
9692.633,10.99793
9694.562,11.00594
9696.49,11.00396
9698.419,11.00985
9700.347,11.04355
9702.275,11.03717
9704.204,11.03538
9706.133,11.05159
9708.062,11.05794
9709.989,11.07967
9711.918,11.08993
9713.847,11.09375
9715.775,11.11485
9717.703,11.12562
9719.632,11.12357
9721.561,11.12419
9723.489,11.13797
9725.418,11.14186
9727.346,11.13918
9729.274,11.16371
9731.203,11.17044
9733.132,11.17544
9735.06,11.17511
9736.988,11.18523
9738.917,11.1994
9740.846,11.19505
9742.774,11.20114
9744.702,11.21432
9746.631,11.21151
9748.56,11.22576
9750.488,11.25173
9752.416,11.2465
9754.345,11.24976
9756.273,11.26143
9758.202,11.26403
9760.131,11.26294
9762.059,11.24758
9763.987,11.2462
9765.916,11.25013
9767.845,11.26096
9769.773,11.26186
9771.701,11.25128
9773.63,11.25094
9775.559,11.26668
9777.487,11.28214
9779.415,11.26956
9781.344,11.27562
9783.272,11.26923
9785.201,11.26247
9787.13,11.27517
9789.058,11.28957
9790.986,11.27702
9792.915,11.27975
9794.844,11.29384
9796.771,11.30043
9798.7,11.30341
9800.629,11.30418
9802.558,11.29556
9804.486,11.30179
9806.414,11.2971
9808.343,11.27824
9810.271,11.27306
9812.2,11.27605
9814.129,11.28355
9816.057,11.29002
9817.985,11.27863
9819.914,11.27524
9821.843,11.29459
9823.771,11.29727
9825.699,11.28735
9827.628,11.28593
9829.557,11.29081
9831.485,11.29755
9833.413,11.30681
9835.342,11.32573
9837.271,11.33194
9839.199,11.32696
9841.127,11.32144
9843.056,11.3297
9844.984,11.35494
9846.913,11.35349
9848.842,11.3547
9850.77,11.38158
9852.698,11.3806
9854.627,11.3681
9856.556,11.38096
9858.484,11.40104
9860.412,11.41586
9862.341,11.44103
9864.27,11.44598
9866.198,11.43246
9868.126,11.42824
9870.055,11.44486
9871.983,11.44572
9873.912,11.42431
9875.841,11.45782
9877.769,11.5037
9879.697,11.49793
9881.626,11.49945
9883.555,11.50074
9885.482,11.51095
9887.411,11.54714
9889.34,11.55046
9891.269,11.5542
9893.197,11.57908
9895.125,11.58412
9897.054,11.57428
9898.982,11.57162
9900.911,11.58
9902.84,11.60073
9904.768,11.60264
9906.696,11.62376
9908.625,11.62337
9910.554,11.59761
9912.481,11.58625
9914.41,11.60936
9916.339,11.65516
9918.268,11.65821
9920.196,11.6434
9922.124,11.66033
9924.053,11.66918
9925.981,11.66375
9927.91,11.67689
9929.838,11.67867
9931.767,11.66576
9933.695,11.65118
9935.624,11.66528
9937.553,11.69554
9939.48,11.71671
9941.409,11.72664
9943.338,11.72645
9945.267,11.73733
9947.195,11.73669
9949.123,11.73813
9951.052,11.75349
9952.98,11.77515
9954.909,11.78437
9956.837,11.80345
9958.766,11.79744
9960.694,11.7784
9962.623,11.78194
9964.552,11.7877
9966.479,11.79798
9968.408,11.82159
9970.337,11.82462
9972.266,11.81975
9974.193,11.80883
9976.122,11.81369
9978.051,11.80027
9979.979,11.81896
9981.908,11.83668
9983.836,11.84893
9985.765,11.83609
9987.693,11.83538
9989.622,11.83843
9991.551,11.86434
9993.479,11.87362
9995.407,11.85096
9997.336,11.84784
9999.265,11.84559
10001.19,11.83405
10003.12,11.8445
10005.05,11.85138
10006.98,11.83368
10008.91,11.8331
10010.83,11.87311
10012.76,11.88606
10014.69,11.89007
10016.62,11.89483
10018.55,11.88037
10020.48,11.86694
10022.41,11.87901
10024.33,11.89157
10026.26,11.88137
10028.19,11.87561
10030.12,11.89853
10032.05,11.91297
10033.98,11.90669
10035.91,11.90502
10037.83,11.91906
10039.76,11.9267
10041.69,11.96234
10043.62,11.98674
10045.55,11.95659
10047.48,11.9198
10049.41,11.92605
10051.33,11.94954
10053.26,11.96745
10055.19,11.98772
10057.12,11.99567
10059.05,11.97505
10060.98,11.9722
10062.9,11.97354
10064.83,11.96717
10066.76,11.96475
10068.69,11.96709
10070.62,11.9938
10072.55,12.00419
10074.48,12.00842
10076.4,12.00457
10078.33,12.01131
10080.26,12.01347
10082.19,11.99549
10084.12,11.98592
10086.05,12.02233
10087.98,12.04871
10089.9,12.01881
10091.83,12.00713
10093.76,12.0105
10095.69,11.99864
10097.62,11.99126
10099.55,12.02328
10101.47,12.05546
10103.4,12.04007
10105.33,12.02812
10107.26,12.02694
10109.19,12.02201
10111.12,11.98132
10113.05,11.98324
10114.97,12.01465
10116.9,12.02129
10118.83,12.02499
10120.76,12.02079
10122.69,12.02815
10124.62,12.04375
10126.54,12.0506
10128.47,12.04858
10130.4,12.05788
10132.33,12.02349
10134.26,12.02993
10136.19,12.03642
10138.12,12.05084
10140.04,12.05404
10141.97,12.05426
10143.9,12.06741
10145.83,12.05724
10147.76,12.03921
10149.69,12.03845
10151.62,12.03301
10153.54,12.03891
10155.47,12.04922
10157.4,12.05452
10159.33,12.03489
10161.26,12.02119
10163.19,12.04067
10165.12,12.05587
10167.04,12.04246
10168.97,12.04227
10170.9,12.05376
10172.83,12.0558
10174.76,12.05601
10176.69,12.05217
10178.61,12.00644
10180.54,11.99751
10182.47,12.04383
10184.4,12.06888
10186.33,12.06991
10188.26,12.0524
10190.19,12.05621
10192.11,12.0658
10194.04,12.08515
10195.97,12.07842
10197.9,12.0566
10199.83,12.02778
10201.76,12.03784
10203.69,12.03239
10205.61,12.02606
10207.54,12.03625
10209.47,12.04718
10211.4,12.05253
10213.33,12.04514
10215.26,12.05009
10217.18,12.03357
10219.11,12.04226
10221.04,12.06604
10222.97,12.05051
10224.9,12.05737
10226.83,12.05356
10228.76,12.05839
10230.68,12.02687
10232.61,12.01785
10234.54,12.03615
10236.47,12.05058
10238.4,12.03204
10240.33,12.01478
10242.25,12.01885
10244.18,12.02872
10246.11,12.06095
10248.04,12.04674
10249.97,12.04337
10251.9,12.02778
10253.83,12.00313
10255.75,12.00249
10257.68,12.0091
10259.61,12.03033
10261.54,12.04601
10263.47,12.04196
10265.4,12.02234
10267.33,12.02874
10269.25,12.04193
10271.18,12.01437
10273.11,11.97357
10275.04,12.00401
10276.97,12.03272
10278.9,12.04064
10280.83,12.03514
10282.75,12.02663
10284.68,12.01236
10286.61,12.01988
10288.54,12.0075
10290.47,12.00229
10292.4,12.01001
10294.32,12.02958
10296.25,12.03474
10298.18,12.02752
10300.11,12.01427
10302.04,12.00335
10303.97,11.99834
10305.9,12.01701
10307.82,12.01525
10309.75,11.98151
10311.68,11.9842
10313.61,11.96847
10315.54,11.97807
10317.47,11.97619
10319.4,11.93818
10321.32,11.96853
10323.25,12.013
10325.18,12.00056
10327.11,11.96471
10329.04,11.97934
10330.97,11.96784
10332.89,11.94743
10334.82,11.97049
10336.75,11.97927
10338.68,11.95703
10340.61,11.97322
10342.54,11.96231
10344.47,11.94494
10346.39,11.95297
10348.32,11.98307
10350.25,11.98411
10352.18,11.9774
10354.11,11.96477
10356.04,12.00111
10357.96,11.98635
10359.89,11.9261
10361.82,11.92077
10363.75,11.97667
10365.68,11.96995
10367.61,11.97181
10369.54,11.97852
10371.46,11.95472
10373.39,11.95085
10375.32,11.93182
10377.25,11.9201
10379.18,11.93787
10381.11,11.95191
10383.04,11.96206
10384.96,11.93144
10386.89,11.93533
10388.82,11.96127
10390.75,11.93346
10392.68,11.90922
10394.61,11.95143
10396.54,11.95021
10398.46,11.91417
10400.39,11.90316
10402.32,11.9442
10404.25,11.932
10406.18,11.92611
10408.11,11.90894
10410.03,11.92757
10411.96,11.92539
10413.89,11.90124
10415.82,11.88665
10417.75,11.88223
10419.68,11.90287
10421.61,11.9167
10423.53,11.92707
10425.46,11.9209
10427.39,11.87827
10429.32,11.85389
10431.25,11.84902
10433.18,11.82131
10435.1,11.82237
10437.03,11.84025
10438.96,11.83232
10440.89,11.83791
10442.82,11.85805
10444.75,11.89794
10446.68,11.89152
10448.6,11.84958
10450.53,11.82366
10452.46,11.82068
10454.39,11.82939
10456.32,11.81278
10458.25,11.80392
10460.18,11.83393
10462.1,11.80865
10464.03,11.77974
10465.96,11.79257
10467.89,11.79414
10469.82,11.77442
10471.75,11.76853
10473.67,11.74568
10475.6,11.73652
10477.53,11.75744
10479.46,11.75766
10481.39,11.72088
10483.32,11.71618
10485.25,11.71418
10487.17,11.7092
10489.1,11.72576
10491.03,11.76353
10492.96,11.72858
10494.89,11.66771
10496.82,11.65396
10498.75,11.67211
10500.67,11.64724
10502.6,11.64827
10504.53,11.66107
10506.46,11.66337
10508.39,11.63681
10510.32,11.66179
10512.25,11.65705
10514.17,11.62279
10516.1,11.60886
10518.03,11.60533
10519.96,11.60019
10521.89,11.59805
10523.82,11.58828
10525.74,11.55399
10527.67,11.52973
10529.6,11.5369
10531.53,11.53885
10533.46,11.52338
10535.39,11.51073
10537.32,11.52496
10539.24,11.50594
10541.17,11.48799
10543.1,11.50885
10545.03,11.47417
10546.96,11.41149
10548.89,11.43228
10550.81,11.47225
10552.74,11.45625
10554.67,11.41889
10556.6,11.35966
10558.53,11.33406
10560.46,11.32544
10562.39,11.31884
10564.31,11.32923
10566.24,11.34083
10568.17,11.29952
10570.1,11.27134
10572.03,11.2706
10573.96,11.23822
10575.89,11.20271
10577.81,11.15609
10579.74,11.11874
10581.67,11.12991
10583.6,11.14033
10585.53,11.10614
10587.46,11.08697
10589.38,11.08971
10591.31,11.06464
10593.24,11.04715
10595.17,11.02538
10597.1,10.97175
10599.03,10.94523
10600.96,10.96509
10602.88,10.95483
10604.81,10.89618
10606.74,10.89435
10608.67,10.8813
10610.6,10.8498
10612.53,10.80141
10614.46,10.75707
10616.38,10.73275
10618.31,10.72182
10620.24,10.66992
10622.17,10.65369
10624.1,10.63236
10626.03,10.61169
10627.96,10.5945
10629.88,10.55353
10631.81,10.50671
10633.74,10.48061
10635.67,10.43291
10637.6,10.42088
10639.53,10.40232
10641.45,10.37192
10643.38,10.3481
10645.31,10.33659
10647.24,10.28519
10649.17,10.22363
10651.1,10.19678
10653.03,10.2332
10654.95,10.2049
10656.88,10.15203
10658.81,10.12162
10660.74,10.07684
10662.67,10.06561
10664.6,10.06328
10666.52,10.0256
10668.45,9.976587
10670.38,9.977512
10672.31,9.954652
10674.24,9.915987
10676.17,9.873954
10678.1,9.900045
10680.02,9.897869
10681.95,9.855977
10683.88,9.799194
10685.81,9.751608
10687.74,9.746716
10689.67,9.733317
10691.59,9.74233
10693.52,9.728638
10695.45,9.714095
10697.38,9.702817
10699.31,9.680407
10701.24,9.671075
10703.17,9.640877
10705.09,9.629586
10707.02,9.607267
10708.95,9.630865
10710.88,9.646893
10712.81,9.605849
10714.74,9.582773
10716.67,9.56473
10718.59,9.59733
10720.52,9.587704
10722.45,9.572556
10724.38,9.594995
10726.31,9.578039
10728.24,9.567752
10730.17,9.562511
10732.09,9.545877
10734.02,9.565256
10735.95,9.568774
10737.88,9.577047
10739.81,9.59188
10741.74,9.636996
10743.67,9.659617
10745.59,9.61825
10747.52,9.617132
10749.45,9.657645
10751.38,9.672204
10753.31,9.642638
10755.24,9.672139
10757.16,9.708068
10759.09,9.695393
10761.02,9.702274
10762.95,9.707602
10764.88,9.687894
10766.81,9.711294
10768.74,9.734491
10770.66,9.722306
10772.59,9.743588
10774.52,9.751771
10776.45,9.79166
10778.38,9.851193
10780.31,9.869706
10782.23,9.897246
10784.16,9.916968
10786.09,9.883666
10788.02,9.902776
10789.95,9.924721
10791.88,9.904086
10793.81,9.91837
10795.73,9.956057
10797.66,9.95542
10799.59,9.977503
10801.52,10.02861
10803.45,10.02213
10805.38,10.02407
10807.3,10.05892
10809.23,10.08705
10811.16,10.12674
10813.09,10.14963
10815.02,10.18868
10816.95,10.19215
10818.88,10.19996
10820.8,10.18449
10822.73,10.19758
10824.66,10.21253
10826.59,10.21834
10828.52,10.22608
10830.45,10.24395
10832.38,10.2816
10834.3,10.3272
10836.23,10.38124
10838.16,10.42028
10840.09,10.42287
10842.02,10.45363
10843.95,10.45185
10845.88,10.44768
10847.8,10.4569
10849.73,10.47561
10851.66,10.48915
10853.59,10.50155
10855.52,10.51515
10857.45,10.52653
10859.38,10.56835
10861.3,10.62718
10863.23,10.67752
10865.16,10.66934
10867.09,10.66978
10869.02,10.66501
10870.95,10.6966
10872.87,10.73995
10874.8,10.72237
10876.73,10.73677
10878.66,10.79815
10880.59,10.84039
10882.52,10.8046
10884.45,10.83855
10886.37,10.88931
10888.3,10.91409
10890.23,10.86342
10892.16,10.93703
10894.09,10.98648
10896.02,10.94843
10897.94,10.92916
10899.87,10.97471
10901.8,10.99178
10903.73,10.9745
10905.66,10.98827
10907.59,11.07324
10909.52,11.0329
10911.44,10.97105
10913.37,11.05931
10915.3,11.10849
10917.23,11.08665
10919.16,11.11614
10921.09,11.14399
10923.01,11.16051
10924.94,11.1468
10926.87,11.13611
10928.8,11.11567
10930.73,11.10572
10932.66,11.18104
10934.59,11.25197
10936.51,11.27421
10938.44,11.25828
10940.37,11.24213
10942.3,11.2306
10944.23,11.23907
10946.16,11.24341
10948.09,11.24362
10950.01,11.25578
10951.94,11.29253
10953.87,11.31941
10955.8,11.31033
10957.73,11.36628
10959.66,11.3951
10961.58,11.44391
10963.51,11.47617
10965.44,11.45859
10967.37,11.4368
10969.3,11.45429
10971.23,11.49419
10973.16,11.50757
10975.08,11.49689
10977.01,11.46496
10978.94,11.44119
10980.87,11.52394
10982.8,11.5522
10984.73,11.5165
10986.66,11.49245
10988.58,11.50536
10990.51,11.58021
10992.44,11.59429
10994.37,11.56178
10996.3,11.6205
10998.23,11.60265
11000.16,11.57266
11002.08,11.6362
11004.01,11.65153
11005.94,11.63998
11007.87,11.65216
11009.8,11.65988
11011.73,11.66963
11013.65,11.67917
11015.58,11.69502
11017.51,11.69421
11019.44,11.73464
11021.37,11.72944
11023.3,11.73078
11025.23,11.71162
11027.15,11.69381
11029.08,11.71385
11031.01,11.79103
11032.94,11.84374
11034.87,11.77413
11036.8,11.74047
11038.72,11.80819
11040.65,11.84834
11042.58,11.8203
11044.51,11.80489
11046.44,11.80535
11048.37,11.80534
11050.3,11.82661
11052.22,11.83286
11054.15,11.83514
11056.08,11.85256
11058.01,11.8567
11059.94,11.85211
11061.87,11.88513
11063.79,11.91716
11065.72,11.88173
11067.65,11.86988
11069.58,11.88743
11071.51,11.9057
11073.44,11.92877
11075.37,11.94018
11077.29,11.93087
11079.22,11.94301
11081.15,11.93904
11083.08,11.90171
11085.01,11.85205
11086.94,11.88882
11088.87,11.93918
11090.79,11.88996
11092.72,11.8672
11094.65,11.87961
11096.58,11.90121
11098.51,11.94201
11100.44,11.90904
11102.37,11.92756
11104.29,11.96385
11106.22,12.01516
11108.15,12.0386
11110.08,11.94643
11112.01,11.89539
11113.94,11.88133
11115.87,11.94578
11117.79,11.95861
11119.72,11.93567
11121.65,11.97135
11123.58,11.99531
11125.51,11.96958
11127.44,11.96643
11129.36,11.93902
11131.29,11.92408
11133.22,11.93722
11135.15,11.96444
11137.08,11.95147
11139.01,11.91293
11140.94,11.91863
11142.86,11.95063
11144.79,11.96349
11146.72,11.96976
11148.65,11.97095
11150.58,12.00553
11152.51,11.97208
11154.43,12.00165
11156.36,12.04404
11158.29,12.00814
11160.22,12.00441
11162.15,12.07013
11164.08,12.11344
11166.01,12.05821
11167.93,11.9986
11169.86,12.04134
11171.79,12.03929
11173.72,12.04323
11175.65,12.0568
11177.58,12.09988
11179.5,12.10159
11181.43,12.08586
11183.36,12.09208
11185.29,12.10841
11187.22,12.08646
11189.15,12.08276
11191.08,12.08405
11193.0,12.12563
11194.93,12.12593
11196.86,12.13622
11198.79,12.17338
11200.72,12.16649
11202.65,12.16006
11204.58,12.1764
11206.5,12.16162
11208.43,12.20548
11210.36,12.21684
11212.29,12.21313
11214.22,12.21762
11216.15,12.24214
11218.08,12.27118
11220.0,12.24522
11221.93,12.22972
11223.86,12.19721
11225.79,12.18158
11227.72,12.17576
11229.65,12.16803
11231.58,12.20534
11233.5,12.25577
11235.43,12.31051
11237.36,12.25761
11239.29,12.22701
11241.22,12.26374
11243.15,12.30043
11245.07,12.29466
11247.0,12.28261
11248.93,12.269
11250.86,12.29086
11252.79,12.34877
11254.72,12.37582
11256.65,12.40838
11258.57,12.41954
11260.5,12.38174
11262.43,12.33504
11264.36,12.31921
11266.29,12.34071
11268.22,12.38031
11270.14,12.3966
11272.07,12.36004
11274.0,12.30783
11275.93,12.33102
11277.86,12.35617
11279.79,12.34662
11281.72,12.39245
11283.64,12.42293
11285.57,12.35358
11287.5,12.33403
11289.43,12.36883
11291.36,12.36388
11293.29,12.37764
11295.21,12.38348
11297.14,12.32009
11299.07,12.33555
11301.0,12.36258
11302.93,12.35538
11304.86,12.31637
11306.79,12.33978
11308.71,12.37917
11310.64,12.41979
11312.57,12.45534
11314.5,12.35401
11316.43,12.32285
11318.36,12.31787
11320.29,12.33204
11322.21,12.42721
11324.14,12.41201
11326.07,12.3806
11328.0,12.44487
11329.93,12.50537
11331.86,12.48715
11333.79,12.48534
11335.71,12.434
11337.64,12.38822
11339.57,12.44675
11341.5,12.41562
11343.43,12.42384
11345.36,12.45359
11347.28,12.50725
11349.21,12.49642
11351.14,12.45116
11353.07,12.51156
11355.0,12.49383
11356.93,12.46104
11358.86,12.50817
11360.78,12.46531
11362.71,12.45003
11364.64,12.46817
11366.57,12.45714
11368.5,12.42983
11370.43,12.44924
11372.36,12.40539
11374.28,12.36285
11376.21,12.49526
11378.14,12.54441
11380.07,12.52107
11382.0,12.52253
11383.93,12.5524
11385.85,12.56897
11387.78,12.53359
11389.71,12.47193
11391.64,12.46166
11393.57,12.53704
11395.5,12.59141
11397.43,12.50816
11399.35,12.47046
11401.28,12.47838
11403.21,12.46194
11405.14,12.47474
11407.07,12.56472
11409.0,12.62316
11410.92,12.51074
11412.85,12.50198
11414.78,12.54214
11416.71,12.57164
11418.64,12.66585
11420.57,12.70572
11422.5,12.56827
11424.42,12.56782
11426.35,12.52926
11428.28,12.5774
11430.21,12.65603
11432.14,12.56896
11434.07,12.54036
11436.0,12.65889
11437.92,12.59892
11439.85,12.53539
11441.78,12.55799
11443.71,12.59109
11445.64,12.55414
11447.57,12.5299
11449.5,12.56962
11451.42,12.62901
11453.35,12.5803
11455.28,12.60182
11457.21,12.62633
11459.14,12.58981
11461.07,12.53255
11462.99,12.55738
11464.92,12.61096
11466.85,12.61369
11468.78,12.63735
11470.71,12.63729
11472.64,12.57126
11474.57,12.53553
11476.49,12.59876
11478.42,12.71461
11480.35,12.69443
11482.28,12.6785
11484.21,12.61011
11486.14,12.49053
11488.07,12.55763
11489.99,12.68052
11491.92,12.69625
11493.85,12.65908
11495.78,12.62022
11497.71,12.57738
11499.64,12.65136
11501.56,12.70733
11503.49,12.68552
11505.42,12.66504
11507.35,12.68373
11509.28,12.64231
11511.21,12.60831
11513.14,12.66249
11515.06,12.67536
11516.99,12.65114
11518.92,12.63689
11520.85,12.66214
11522.78,12.61176
11524.71,12.6175
11526.63,12.68891
11528.56,12.67057
11530.49,12.66353
11532.42,12.68618
11534.35,12.68754
11536.28,12.7247
11538.21,12.67848
11540.13,12.65599
11542.06,12.66826
11543.99,12.65566
11545.92,12.64156
11547.85,12.69976
11549.78,12.70471
11551.71,12.64972
11553.63,12.55785
11555.56,12.62793
11557.49,12.71752
11559.42,12.69308
11561.35,12.62413
11563.28,12.55969
11565.21,12.53755
11567.13,12.63304
11569.06,12.71167
11570.99,12.70629
11572.92,12.63281
11574.85,12.54415
11576.78,12.65746
11578.7,12.72919
11580.63,12.68287
11582.56,12.69412
11584.49,12.77629
11586.42,12.79447
11588.35,12.77473
11590.28,12.68512
11592.2,12.69639
11594.13,12.67823
11596.06,12.70213
11597.99,12.7014
11599.92,12.7283
11601.85,12.72881
11603.78,12.68048
11605.7,12.6542
11607.63,12.71811
11609.56,12.84437
11611.49,12.83774
11613.42,12.70871
11615.35,12.5957
11617.27,12.60631
11619.2,12.74439
11621.13,12.7971
11623.06,12.79634
11624.99,12.78124
11626.92,12.69345
11628.85,12.63508
11630.77,12.6137
11632.7,12.74797
11634.63,12.79685
11636.56,12.7534
11638.49,12.71521
11640.42,12.79415
11642.34,12.77738
11644.27,12.70791
11646.2,12.69775
11648.13,12.72467
11650.06,12.72937
11651.99,12.7556
11653.92,12.75993
11655.84,12.72242
11657.77,12.75317
11659.7,12.74104
11661.63,12.68432
11663.56,12.67211
11665.49,12.7134
11667.42,12.61477
11669.34,12.65497
11671.27,12.68758
11673.2,12.72422
11675.13,12.77323
11677.06,12.73559
11678.99,12.76048
11680.92,12.74557
11682.84,12.71223
11684.77,12.63454
11686.7,12.66592
11688.63,12.72122
11690.56,12.75191
11692.49,12.74273
11694.41,12.79537
11696.34,12.78292
11698.27,12.689
11700.2,12.66321
11702.13,12.66866
11704.06,12.70905
11705.99,12.7161
11707.91,12.60386
11709.84,12.63151
11711.77,12.7731
11713.7,12.81996
11715.63,12.7845
11717.56,12.78697
11719.48,12.76175
11721.41,12.68348
11723.34,12.73451
11725.27,12.80329
11727.2,12.71701
11729.13,12.72202
11731.06,12.83876
11732.98,12.72406
11734.91,12.70591
11736.84,12.79595
11738.77,12.8577
11740.7,12.79715
11742.63,12.80011
11744.56,12.90127
11746.48,12.787
11748.41,12.69352
11750.34,12.73742
11752.27,12.7462
11754.2,12.75035
11756.13,12.79829
11758.05,12.80035
11759.98,12.70764
11761.91,12.75048
11763.84,12.80744
11765.77,12.84797
11767.7,12.85897
11769.63,12.81415
11771.55,12.77788
11773.48,12.72756
11775.41,12.73233
11777.34,12.8019
11779.27,12.75457
11781.2,12.69231
11783.13,12.70057
11785.05,12.79661
11786.98,12.77474
11788.91,12.78658
11790.84,12.80012
11792.77,12.77368
11794.7,12.66477
11796.63,12.66938
11798.55,12.7712
11800.48,12.7195
11802.41,12.67476
11804.34,12.58018
11806.27,12.56277
11808.2,12.66745
11810.12,12.74059
11812.05,12.62926
11813.98,12.56667
11815.91,12.67183
11817.84,12.81647
11819.77,12.78808
11821.7,12.70327
11823.62,12.65678
11825.55,12.62991
11827.48,12.59193
11829.41,12.61365
11831.34,12.72973
11833.27,12.80086
11835.19,12.82253
11837.12,12.72115
11839.05,12.71309
11840.98,12.79752
11842.91,12.89592
11844.84,12.75147
11846.77,12.51765
11848.69,12.2003
11850.62,12.5011
11852.55,12.77006
11854.48,12.72146
11856.41,12.71804
11858.34,12.78497
11860.27,12.73494
11862.19,12.74362
11864.12,12.89439
11866.05,12.78797
11867.98,12.68229
11869.91,12.62963
11871.84,12.53591
11873.76,12.61164
11875.69,12.63189
11877.62,12.66352
11879.55,12.74218
11881.48,12.7625
11883.41,12.77316
11885.34,12.68077
11887.26,12.64786
11889.19,12.73999
11891.12,12.76501
11893.05,12.732
11894.98,12.75826
11896.91,12.7505
11898.83,12.71618
11900.76,12.76646
11902.69,12.66982
11904.62,12.68068
11906.55,12.75149
11908.48,12.73595
11910.41,12.60205
11912.33,12.62626
11914.26,12.65966
11916.19,12.69016
11918.12,12.76625
11920.05,12.81999
11921.98,12.9622
11923.91,12.89759
11925.83,12.80883
11927.76,12.92904
11929.69,12.91415
11931.62,12.79308
11933.55,12.71415
11935.48,12.72789
11937.41,12.73854
11939.33,12.8113
11941.26,12.83525
11943.19,12.78054
11945.12,12.79519
11947.05,12.73538
11948.98,12.76877
11950.9,12.67895
11952.83,12.6833
11954.76,12.75804
11956.69,12.85346
11958.62,12.95282
11960.55,12.95682
11962.48,12.74794
11964.4,12.8077
11966.33,12.74053
11968.26,12.71272
11970.19,12.78796
11972.12,12.7036
11974.05,12.62638
11975.98,12.57307
11977.9,12.61296
11979.83,12.7501
11981.76,12.75414
11983.69,12.73641
11985.62,12.67848
11987.55,12.83582
11989.47,12.83932
11991.4,12.72342
11993.33,12.70849
11995.26,12.74227
11997.19,12.8287
11999.12,12.77386
