Wavenumber,Intensity
3999.706,2.820138
4001.634,2.822901
4003.563,2.825287
4005.491,2.824916
4007.42,2.828784
4009.348,2.825675
4011.277,2.825928
4013.205,2.828989
4015.134,2.830614
4017.062,2.833796
4018.991,2.834693
4020.919,2.830657
4022.848,2.831744
4024.776,2.836723
4026.705,2.838824
4028.633,2.839706
4030.562,2.836813
4032.49,2.835272
4034.419,2.841758
4036.347,2.843307
4038.276,2.83949
4040.204,2.840823
4042.133,2.848403
4044.061,2.850043
4045.99,2.844389
4047.918,2.844514
4049.847,2.845441
4051.775,2.848761
4053.704,2.850744
4055.632,2.851788
4057.561,2.850402
4059.489,2.849672
4061.418,2.850667
4063.346,2.855779
4065.275,2.859882
4067.203,2.860015
4069.132,2.855827
4071.06,2.85481
4072.989,2.858736
4074.917,2.861183
4076.846,2.862171
4078.774,2.861049
4080.703,2.863867
4082.631,2.862794
4084.56,2.866123
4086.488,2.869344
4088.417,2.86725
4090.345,2.861492
4092.274,2.865144
4094.202,2.870013
4096.131,2.868551
4098.059,2.868606
4099.988,2.865759
4101.916,2.86687
4103.845,2.871129
4105.773,2.870851
4107.702,2.87069
4109.63,2.870591
4111.559,2.870453
4113.487,2.871339
4115.416,2.871576
4117.344,2.871709
4119.273,2.870658
4121.201,2.874737
4123.13,2.876756
4125.058,2.878187
4126.987,2.876433
4128.915,2.873834
4130.844,2.873811
4132.772,2.873603
4134.701,2.876644
4136.629,2.875785
4138.558,2.87738
4140.486,2.877305
4142.415,2.878163
4144.343,2.878348
4146.271,2.877382
4148.2,2.876837
4150.129,2.878633
4152.057,2.880157
4153.986,2.881136
4155.914,2.882503
4157.843,2.882205
4159.771,2.882942
4161.7,2.886144
4163.628,2.882939
4165.557,2.881961
4167.485,2.886216
4169.414,2.88879
4171.342,2.889758
4173.271,2.890462
4175.199,2.891283
4177.127,2.893517
4179.056,2.89334
4180.985,2.894794
4182.913,2.899608
4184.842,2.899853
4186.77,2.900213
4188.699,2.902093
4190.627,2.905081
4192.556,2.909241
4194.484,2.908656
4196.413,2.908967
4198.341,2.915364
4200.27,2.918588
4202.198,2.923213
4204.126,2.922463
4206.055,2.921568
4207.983,2.926472
4209.912,2.930348
4211.841,2.933702
4213.769,2.938066
4215.698,2.942302
4217.626,2.940063
4219.555,2.940883
4221.483,2.945758
4223.412,2.946992
4225.34,2.948496
4227.269,2.949594
4229.197,2.949148
4231.125,2.950858
4233.054,2.953423
4234.982,2.953094
4236.911,2.953306
4238.84,2.953968
4240.768,2.956436
4242.697,2.959376
4244.625,2.959382
4246.554,2.959438
4248.482,2.961337
4250.411,2.964959
4252.339,2.963403
4254.268,2.95981
4256.196,2.960503
4258.125,2.960644
4260.053,2.962104
4261.981,2.965907
4263.91,2.970535
4265.838,2.971951
4267.767,2.97363
4269.696,2.975752
4271.624,2.975581
4273.553,2.976151
4275.481,2.977986
4277.41,2.977681
4279.338,2.980136
4281.267,2.982726
4283.195,2.98171
4285.124,2.97847
4287.052,2.978481
4288.98,2.98086
4290.909,2.983212
4292.837,2.980278
4294.766,2.98366
4296.694,2.987114
4298.623,2.986984
4300.552,2.986179
4302.48,2.984972
4304.409,2.984381
4306.337,2.984817
4308.266,2.98562
4310.194,2.985847
4312.123,2.987757
4314.051,2.986969
4315.979,2.98615
4317.908,2.987798
4319.836,2.986299
4321.765,2.982863
4323.693,2.98267
4325.622,2.983677
4327.551,2.981888
4329.479,2.981333
4331.408,2.983116
4333.336,2.985514
4335.265,2.986188
4337.193,2.983732
4339.122,2.982604
4341.05,2.986382
4342.979,2.988213
4344.907,2.988542
4346.835,2.989051
4348.764,2.990809
4350.692,2.992852
4352.621,2.989122
4354.549,2.990385
4356.478,2.988207
4358.407,2.987582
4360.335,2.990321
4362.264,2.989264
4364.192,2.991361
4366.121,2.991749
4368.049,2.990722
4369.978,2.989163
4371.906,2.989064
4373.834,2.990619
4375.763,2.990875
4377.691,2.99165
4379.62,2.991607
4381.548,2.99292
4383.477,2.993583
4385.405,2.989095
4387.334,2.98928
4389.263,2.991688
4391.191,2.994781
4393.12,2.999856
4395.048,3.001477
4396.977,3.001108
4398.905,3.001227
4400.833,3.003059
4402.762,3.006748
4404.69,3.009409
4406.619,3.012378
4408.547,3.013181
4410.476,3.014752
4412.404,3.02
4414.333,3.028359
4416.262,3.034304
4418.19,3.039088
4420.119,3.042423
4422.047,3.04424
4423.976,3.05039
4425.904,3.059503
4427.833,3.064101
4429.761,3.066883
4431.689,3.071651
4433.618,3.080069
4435.546,3.090332
4437.475,3.096542
4439.403,3.098181
4441.332,3.102632
4443.26,3.109842
4445.189,3.113952
4447.117,3.121692
4449.046,3.130641
4450.975,3.138402
4452.903,3.146174
4454.832,3.154526
4456.76,3.167034
4458.688,3.173235
4460.617,3.175722
4462.545,3.184952
4464.474,3.191489
4466.402,3.199427
4468.331,3.206384
4470.259,3.211474
4472.188,3.217238
4474.116,3.21813
4476.045,3.226627
4477.974,3.236948
4479.902,3.246377
4481.831,3.254625
4483.759,3.26123
4485.688,3.26516
4487.616,3.273053
4489.544,3.280534
4491.473,3.288975
4493.401,3.300481
4495.33,3.311692
4497.258,3.318003
4499.187,3.322581
4501.115,3.329819
4503.044,3.339291
4504.972,3.349107
4506.901,3.35414
4508.83,3.362285
4510.758,3.372687
4512.687,3.381807
4514.615,3.389283
4516.543,3.395814
4518.472,3.405202
4520.4,3.415404
4522.329,3.424329
4524.257,3.433386
4526.186,3.443522
4528.114,3.451851
4530.043,3.461089
4531.971,3.471387
4533.9,3.480077
4535.828,3.489324
4537.757,3.500224
4539.686,3.511135
4541.614,3.51932
4543.542,3.533333
4545.471,3.54788
4547.399,3.561078
4549.328,3.569059
4551.256,3.575114
4553.185,3.58545
4555.113,3.597607
4557.042,3.60766
4558.97,3.61915
4560.899,3.632293
4562.827,3.641786
4564.756,3.653767
4566.685,3.658669
4568.613,3.66777
4570.542,3.676068
4572.47,3.682581
4574.398,3.692653
4576.327,3.699893
4578.255,3.705019
4580.184,3.711427
4582.112,3.720187
4584.041,3.727833
4585.969,3.732809
4587.898,3.73564
4589.826,3.741081
4591.755,3.749238
4593.683,3.753725
4595.612,3.754864
4597.54,3.76087
4599.469,3.764553
4601.397,3.772457
4603.326,3.778494
4605.254,3.7802
4607.183,3.783922
4609.111,3.785069
4611.04,3.790636
4612.968,3.795314
4614.897,3.798848
4616.825,3.804033
4618.754,3.809114
4620.682,3.811556
4622.611,3.817536
4624.539,3.820862
4626.468,3.822627
4628.396,3.83002
4630.325,3.832675
4632.253,3.832535
4634.182,3.833474
4636.11,3.834881
4638.039,3.836411
4639.967,3.842148
4641.896,3.842109
4643.824,3.841675
4645.753,3.84213
4647.681,3.842539
4649.61,3.842428
4651.538,3.841631
4653.467,3.83666
4655.396,3.82968
4657.324,3.824588
4659.252,3.816826
4661.181,3.807717
4663.109,3.801681
4665.038,3.792942
4666.966,3.793345
4668.895,3.80027
4670.823,3.80552
4672.752,3.812595
4674.68,3.823913
4676.609,3.838253
4678.537,3.848138
4680.466,3.857833
4682.394,3.867128
4684.323,3.871032
4686.251,3.874778
4688.18,3.881016
4690.108,3.883465
4692.037,3.883399
4693.965,3.88649
4695.894,3.890733
4697.822,3.894651
4699.751,3.891678
4701.679,3.890256
4703.608,3.894196
4705.536,3.894789
4707.465,3.890155
4709.393,3.887338
4711.322,3.887945
4713.25,3.88156
4715.179,3.876514
4717.107,3.873613
4719.036,3.872634
4720.964,3.868906
4722.893,3.863086
4724.821,3.86
4726.75,3.857807
4728.678,3.856433
4730.606,3.853033
4732.535,3.851447
4734.464,3.851516
4736.392,3.849151
4738.321,3.850518
4740.249,3.849411
4742.178,3.846699
4744.106,3.842274
4746.035,3.841717
4747.963,3.840024
4749.892,3.840308
4751.82,3.836823
4753.749,3.830141
4755.677,3.825782
4757.605,3.825715
4759.534,3.822031
4761.463,3.816709
4763.391,3.810528
4765.32,3.806006
4767.248,3.801966
4769.177,3.797526
4771.105,3.786393
4773.034,3.777662
4774.962,3.772373
4776.891,3.768728
4778.819,3.764747
4780.748,3.763008
4782.676,3.761734
4784.604,3.756207
4786.533,3.755761
4788.462,3.753943
4790.39,3.752268
4792.319,3.749904
4794.247,3.74665
4796.176,3.746598
4798.104,3.748368
4800.033,3.743888
4801.961,3.738193
4803.89,3.732005
4805.818,3.726821
4807.747,3.720239
4809.675,3.715781
4811.604,3.71203
4813.532,3.705482
4815.46,3.698045
4817.389,3.691699
4819.317,3.687767
4821.246,3.682053
4823.175,3.67309
4825.103,3.668121
4827.032,3.667263
4828.96,3.662855
4830.889,3.656819
4832.817,3.653432
4834.746,3.647921
4836.674,3.641368
4838.603,3.635523
4840.531,3.629559
4842.459,3.61995
4844.388,3.613009
4846.316,3.608057
4848.245,3.601072
4850.174,3.591477
4852.102,3.582662
4854.031,3.57711
4855.959,3.57283
4857.888,3.562654
4859.816,3.554945
4861.745,3.552067
4863.673,3.54941
4865.602,3.545425
4867.53,3.541968
4869.458,3.543181
4871.387,3.544331
4873.315,3.546581
4875.244,3.549872
4877.172,3.549924
4879.101,3.549496
4881.03,3.549023
4882.958,3.551434
4884.887,3.554904
4886.815,3.560533
4888.744,3.562968
4890.672,3.565809
4892.601,3.566991
4894.529,3.567103
4896.458,3.565757
4898.386,3.567464
4900.314,3.573037
4902.243,3.57708
4904.171,3.576007
4906.1,3.575221
4908.028,3.575506
4909.957,3.577326
4911.886,3.577592
4913.814,3.578605
4915.743,3.579746
4917.671,3.580213
4919.6,3.57824
4921.528,3.576906
4923.457,3.577463
4925.385,3.576356
4927.313,3.575713
4929.242,3.577183
4931.17,3.577501
4933.099,3.574313
4935.027,3.574961
4936.956,3.575053
4938.885,3.573157
4940.813,3.569209
4942.742,3.567271
4944.67,3.562722
4946.599,3.557316
4948.527,3.55257
4950.456,3.543354
4952.384,3.536234
4954.313,3.524668
4956.241,3.506584
4958.169,3.49258
4960.098,3.482909
4962.026,3.476468
4963.955,3.472091
4965.883,3.469742
4967.812,3.469003
4969.74,3.474358
4971.669,3.480771
4973.598,3.48327
4975.526,3.485816
4977.455,3.488041
4979.383,3.493479
4981.312,3.498406
4983.24,3.502632
4985.168,3.507612
4987.097,3.510212
4989.025,3.517967
4990.954,3.526526
4992.882,3.533156
4994.811,3.538305
4996.739,3.546156
4998.668,3.551946
5000.597,3.557469
5002.525,3.564284
5004.454,3.56891
5006.382,3.573179
5008.311,3.577389
5010.239,3.57741
5012.167,3.579263
5014.096,3.581504
5016.024,3.585551
5017.953,3.583856
5019.881,3.584669
5021.81,3.586318
5023.738,3.588367
5025.667,3.591079
5027.596,3.595271
5029.524,3.596622
5031.452,3.59868
5033.381,3.601365
5035.31,3.600915
5037.238,3.601127
5039.167,3.603255
5041.095,3.603549
5043.023,3.603563
5044.952,3.605932
5046.88,3.605041
5048.809,3.606382
5050.737,3.603116
5052.666,3.599567
5054.595,3.597618
5056.523,3.595876
5058.451,3.592731
5060.38,3.590874
5062.309,3.586658
5064.237,3.586163
5066.166,3.587145
5068.094,3.587175
5070.022,3.589139
5071.951,3.589537
5073.879,3.587177
5075.808,3.584979
5077.736,3.584905
5079.665,3.587708
5081.593,3.585045
5083.522,3.584077
5085.45,3.583659
5087.379,3.580639
5089.308,3.579818
5091.236,3.581311
5093.165,3.57917
5095.093,3.576889
5097.021,3.577799
5098.95,3.576792
5100.878,3.575973
5102.807,3.576749
5104.735,3.578041
5106.664,3.581681
5108.592,3.583919
5110.521,3.583972
5112.449,3.586129
5114.378,3.586994
5116.307,3.589163
5118.235,3.591397
5120.163,3.593166
5122.092,3.594595
5124.021,3.596678
5125.949,3.598066
5127.877,3.59925
5129.806,3.601989
5131.734,3.605333
5133.663,3.60446
5135.591,3.601237
5137.52,3.600087
5139.448,3.602013
5141.377,3.600322
5143.305,3.595091
5145.234,3.593399
5147.162,3.590997
5149.091,3.589042
5151.02,3.586302
5152.948,3.582702
5154.876,3.581953
5156.805,3.580814
5158.733,3.580739
5160.662,3.578737
5162.59,3.580777
5164.519,3.578267
5166.447,3.579178
5168.376,3.585388
5170.304,3.583935
5172.233,3.581006
5174.161,3.57832
5176.09,3.578215
5178.019,3.579844
5179.947,3.578995
5181.875,3.577314
5183.804,3.583207
5185.732,3.575867
5187.661,3.580252
5189.589,3.578502
5191.518,3.573915
5193.446,3.578377
5195.375,3.585883
5197.303,3.581172
5199.232,3.575722
5201.16,3.580362
5203.089,3.589509
5205.018,3.60653
5206.946,3.593843
5208.874,3.580109
5210.803,3.577349
5212.731,3.579107
5214.66,3.579041
5216.588,3.583845
5218.517,3.581166
5220.445,3.578308
5222.374,3.587492
5224.302,3.598934
5226.231,3.583986
5228.159,3.583498
5230.088,3.593491
5232.016,3.591757
5233.945,3.58826
5235.873,3.586481
5237.802,3.589613
5239.73,3.585261
5241.659,3.597714
5243.587,3.607317
5245.516,3.606128
5247.444,3.612164
5249.373,3.594033
5251.301,3.595844
5253.229,3.609009
5255.158,3.598905
5257.087,3.592166
5259.015,3.602903
5260.944,3.609682
5262.872,3.614561
5264.801,3.600188
5266.729,3.602827
5268.658,3.602533
5270.586,3.595091
5272.515,3.597873
5274.443,3.598095
5276.372,3.596625
5278.3,3.603337
5280.229,3.60217
5282.157,3.603172
5284.086,3.609437
5286.014,3.602509
5287.943,3.609316
5289.871,3.61013
5291.8,3.595776
5293.729,3.597792
5295.657,3.594825
5297.585,3.598308
5299.514,3.594642
5301.442,3.589264
5303.371,3.588351
5305.299,3.595779
5307.228,3.593694
5309.156,3.581353
5311.085,3.585149
5313.013,3.590303
5314.941,3.599364
5316.87,3.59992
5318.799,3.60321
5320.727,3.609362
5322.656,3.61502
5324.584,3.625157
5326.513,3.633854
5328.441,3.617918
5330.37,3.6264
5332.298,3.625414
5334.227,3.621456
5336.155,3.636656
5338.084,3.625924
5340.012,3.599446
5341.94,3.612862
5343.869,3.61353
5345.798,3.58413
5347.726,3.580962
5349.655,3.571347
5351.583,3.582647
5353.512,3.569151
5355.44,3.543722
5357.369,3.544226
5359.297,3.54074
5361.226,3.543581
5363.154,3.536707
5365.083,3.520101
5367.011,3.515782
5368.939,3.513614
5370.868,3.51161
5372.797,3.513357
5374.725,3.513763
5376.654,3.502306
5378.582,3.4849
5380.511,3.487488
5382.439,3.488693
5384.368,3.495174
5386.296,3.479059
5388.225,3.471305
5390.153,3.471884
5392.082,3.477167
5394.01,3.464532
5395.938,3.453384
5397.867,3.445874
5399.796,3.440846
5401.724,3.439691
5403.652,3.434261
5405.581,3.426036
5407.51,3.430434
5409.438,3.42771
5411.367,3.413315
5413.295,3.404551
5415.224,3.379812
5417.152,3.378905
5419.081,3.374727
5421.009,3.371611
5422.938,3.370326
5424.866,3.371794
5426.795,3.37895
5428.723,3.368729
5430.651,3.351891
5432.58,3.367409
5434.509,3.359436
5436.437,3.343107
5438.366,3.35385
5440.294,3.362833
5442.223,3.350958
5444.151,3.358245
5446.08,3.344094
5448.008,3.343027
5449.937,3.338235
5451.865,3.334541
5453.793,3.337253
5455.722,3.335133
5457.65,3.335936
5459.579,3.340175
5461.508,3.330394
5463.436,3.330542
5465.365,3.326156
5467.293,3.326073
5469.222,3.322624
5471.15,3.318005
5473.079,3.327657
5475.007,3.323802
5476.936,3.299438
5478.864,3.303519
5480.792,3.298696
5482.721,3.297666
5484.649,3.296315
5486.578,3.298002
5488.507,3.295424
5490.435,3.298163
5492.363,3.296414
5494.292,3.280114
5496.221,3.281819
5498.149,3.285703
5500.078,3.285274
5502.006,3.29015
5503.935,3.291576
5505.863,3.295505
5507.792,3.293159
5509.72,3.289129
5511.648,3.29229
5513.577,3.293947
5515.505,3.296273
5517.434,3.29398
5519.362,3.298943
5521.291,3.304279
5523.22,3.30339
5525.148,3.299635
5527.077,3.294034
5529.005,3.28916
5530.934,3.292485
5532.862,3.295969
5534.791,3.297071
5536.719,3.294675
5538.647,3.292494
5540.576,3.293556
5542.504,3.292933
5544.433,3.292245
5546.361,3.29078
5548.29,3.290384
5550.219,3.290325
5552.147,3.288345
5554.076,3.286594
5556.004,3.285552
5557.933,3.288662
5559.861,3.292526
5561.79,3.295912
5563.718,3.298092
5565.646,3.298958
5567.575,3.30206
5569.503,3.30544
5571.432,3.310205
5573.36,3.313015
5575.289,3.312967
5577.218,3.32263
5579.146,3.3334
5581.074,3.33569
5583.003,3.336429
5584.932,3.34197
5586.86,3.346182
5588.789,3.347062
5590.717,3.346527
5592.646,3.343632
5594.574,3.339231
5596.502,3.337331
5598.431,3.335387
5600.359,3.334615
5602.288,3.330188
5604.216,3.321036
5606.145,3.318572
5608.073,3.314667
5610.002,3.306108
5611.931,3.301952
5613.859,3.299328
5615.788,3.294959
5617.716,3.289461
5619.645,3.284204
5621.573,3.27939
5623.501,3.273574
5625.43,3.270252
5627.358,3.26737
5629.287,3.261721
5631.215,3.257525
5633.144,3.255109
5635.072,3.250774
5637.001,3.2452
5638.93,3.238907
5640.858,3.23283
5642.786,3.225933
5644.715,3.219724
5646.644,3.210601
5648.572,3.199362
5650.5,3.189254
5652.429,3.180202
5654.357,3.168885
5656.286,3.161481
5658.214,3.156306
5660.143,3.155239
5662.071,3.15639
5664.0,3.157382
5665.929,3.15455
5667.857,3.155865
5669.785,3.160143
5671.714,3.160894
5673.643,3.162882
5675.571,3.164889
5677.5,3.170535
5679.428,3.176326
5681.356,3.184172
5683.285,3.18835
5685.213,3.190184
5687.142,3.191329
5689.07,3.195642
5690.999,3.200401
5692.927,3.204687
5694.856,3.209515
5696.784,3.21623
5698.713,3.225796
5700.642,3.235006
5702.57,3.239257
5704.499,3.245121
5706.427,3.252344
5708.355,3.257493
5710.284,3.259783
5712.212,3.267223
5714.141,3.273201
5716.069,3.271889
5717.998,3.271914
5719.926,3.269961
5721.855,3.261914
5723.783,3.252515
5725.712,3.239905
5727.641,3.226368
5729.569,3.216494
5731.497,3.210632
5733.426,3.206346
5735.354,3.205022
5737.283,3.202948
5739.211,3.20106
5741.14,3.196704
5743.068,3.1893
5744.997,3.181444
5746.925,3.172191
5748.854,3.168501
5750.782,3.165965
5752.711,3.162544
5754.639,3.15803
5756.568,3.155161
5758.496,3.150042
5760.425,3.147929
5762.354,3.145519
5764.282,3.146354
5766.21,3.146682
5768.139,3.143193
5770.067,3.142862
5771.996,3.141187
5773.924,3.139357
5775.853,3.139642
5777.781,3.140601
5779.71,3.143248
5781.638,3.143386
5783.567,3.14137
5785.495,3.14497
5787.424,3.146896
5789.353,3.143173
5791.281,3.145812
5793.209,3.149704
5795.138,3.150446
5797.066,3.150723
5798.995,3.149131
5800.923,3.146656
5802.852,3.150063
5804.78,3.15139
5806.709,3.152512
5808.637,3.155693
5810.566,3.156681
5812.494,3.159906
5814.423,3.162654
5816.352,3.163438
5818.28,3.166764
5820.208,3.172548
5822.137,3.174518
5824.065,3.178217
5825.994,3.178879
5827.922,3.18263
5829.851,3.186413
5831.779,3.192827
5833.708,3.198747
5835.636,3.206156
5837.565,3.209625
5839.493,3.212431
5841.422,3.219424
5843.35,3.22826
5845.279,3.233953
5847.207,3.241029
5849.136,3.255865
5851.064,3.272032
5852.993,3.289005
5854.921,3.306955
5856.85,3.323667
5858.778,3.345142
5860.707,3.370393
5862.635,3.397364
5864.563,3.428144
5866.492,3.459907
5868.421,3.491963
5870.349,3.527533
5872.278,3.563979
5874.206,3.605322
5876.135,3.648965
5878.063,3.689959
5879.992,3.731539
5881.92,3.776362
5883.849,3.812767
5885.777,3.848852
5887.706,3.890198
5889.634,3.925083
5891.563,3.955042
5893.491,3.979781
5895.42,4.002288
5897.348,4.023771
5899.277,4.043236
5901.205,4.0636
5903.134,4.08728
5905.063,4.11339
5906.991,4.142299
5908.919,4.173923
5910.848,4.208952
5912.776,4.244945
5914.705,4.286007
5916.633,4.330688
5918.562,4.371382
5920.49,4.412761
5922.419,4.45101
5924.347,4.490838
5926.276,4.531062
5928.204,4.572824
5930.133,4.610426
5932.061,4.646647
5933.99,4.678802
5935.918,4.714455
5937.847,4.744833
5939.775,4.77636
5941.704,4.808979
5943.632,4.839202
5945.561,4.868549
5947.489,4.897228
5949.418,4.923932
5951.346,4.951193
5953.274,4.981607
5955.203,5.014383
5957.132,5.045177
5959.06,5.075769
5960.989,5.106136
5962.917,5.141247
5964.846,5.178897
5966.774,5.218596
5968.703,5.255346
5970.631,5.28635
5972.56,5.319214
5974.488,5.356194
5976.417,5.389815
5978.345,5.418971
5980.273,5.445322
5982.202,5.478732
5984.131,5.509979
5986.059,5.539545
5987.988,5.567423
5989.916,5.595372
5991.845,5.623439
5993.773,5.650035
5995.702,5.675919
5997.63,5.700986
5999.559,5.72683
6001.487,5.748085
6003.416,5.770078
6005.344,5.796277
6007.272,5.821762
6009.201,5.845922
6011.13,5.870648
6013.058,5.894428
6014.986,5.919039
6016.915,5.944427
6018.844,5.966334
6020.772,5.982799
6022.701,6.005054
6024.629,6.03532
6026.558,6.051718
6028.486,6.071046
6030.415,6.092031
6032.343,6.111243
6034.271,6.125516
6036.2,6.147115
6038.129,6.166959
6040.057,6.180491
6041.985,6.195265
6043.914,6.212099
6045.843,6.222884
6047.771,6.237014
6049.7,6.252358
6051.628,6.274279
6053.557,6.288799
6055.485,6.303076
6057.414,6.316983
6059.342,6.32989
6061.271,6.340436
6063.199,6.353941
6065.128,6.362555
6067.056,6.372521
6068.984,6.387963
6070.913,6.399916
6072.842,6.406819
6074.77,6.417783
6076.698,6.430786
6078.627,6.444175
6080.556,6.456593
6082.484,6.464656
6084.413,6.471471
6086.341,6.485253
6088.27,6.493965
6090.198,6.497865
6092.126,6.501309
6094.055,6.502663
6095.983,6.505152
6097.912,6.506188
6099.841,6.501652
6101.769,6.498023
6103.697,6.497928
6105.626,6.505168
6107.555,6.510324
6109.483,6.51729
6111.412,6.52551
6113.34,6.533865
6115.269,6.542864
6117.197,6.556377
6119.125,6.568281
6121.054,6.57985
6122.982,6.592732
6124.911,6.606685
6126.84,6.618258
6128.768,6.633395
6130.696,6.64316
6132.625,6.652923
6134.554,6.662254
6136.482,6.675161
6138.41,6.68669
6140.339,6.69458
6142.268,6.704604
6144.196,6.719538
6146.125,6.728864
6148.053,6.736138
6149.981,6.742416
6151.91,6.752282
6153.839,6.761185
6155.767,6.770287
6157.695,6.780005
6159.624,6.785821
6161.553,6.794695
6163.481,6.804965
6165.409,6.809813
6167.338,6.821818
6169.267,6.834716
6171.195,6.845694
6173.124,6.850305
6175.052,6.854765
6176.98,6.862501
6178.909,6.866803
6180.837,6.87398
6182.766,6.881083
6184.694,6.886103
6186.623,6.89228
6188.552,6.896134
6190.48,6.900542
6192.408,6.90588
6194.337,6.909703
6196.266,6.912565
6198.194,6.92157
6200.123,6.926757
6202.051,6.934596
6203.979,6.936663
6205.908,6.94038
6207.836,6.944588
6209.765,6.951689
6211.693,6.957636
6213.622,6.960446
6215.551,6.966531
6217.479,6.97177
6219.407,6.97411
6221.336,6.97277
6223.265,6.976366
6225.193,6.980892
6227.121,6.983577
6229.05,6.985286
6230.979,6.993402
6232.907,7.002237
6234.835,7.002267
6236.764,7.004534
6238.692,7.007056
6240.621,7.009662
6242.549,7.007646
6244.478,7.009663
6246.406,7.009664
6248.335,7.014412
6250.264,7.014917
6252.192,7.011872
6254.12,7.01422
6256.049,7.017164
6257.978,7.016114
6259.906,7.021349
6261.834,7.023614
6263.763,7.022734
6265.691,7.025781
6267.62,7.026497
6269.548,7.02642
6271.477,7.029271
6273.405,7.029647
6275.334,7.034791
6277.263,7.03185
6279.191,7.03005
6281.119,7.034282
6283.048,7.037669
6284.977,7.037066
6286.905,7.038098
6288.833,7.037087
6290.762,7.040007
6292.69,7.040539
6294.619,7.039527
6296.547,7.038703
6298.476,7.041211
6300.404,7.041629
6302.333,7.041329
6304.262,7.041565
6306.19,7.045866
6308.118,7.04626
6310.047,7.046892
6311.976,7.047
6313.904,7.047532
6315.832,7.045662
6317.761,7.04729
6319.689,7.044934
6321.618,7.042039
6323.546,7.040416
6325.475,7.038624
6327.403,7.03436
6329.332,7.031359
6331.26,7.030341
6333.189,7.025324
6335.117,7.021332
6337.046,7.021592
6338.975,7.019674
6340.903,7.019506
6342.831,7.007979
6344.76,7.000805
6346.688,6.998169
6348.617,6.994299
6350.545,6.991365
6352.474,6.984364
6354.402,6.9767
6356.331,6.969763
6358.259,6.963264
6360.188,6.961008
6362.116,6.957509
6364.045,6.9502
6365.974,6.940587
6367.902,6.931075
6369.83,6.92053
6371.759,6.910954
6373.688,6.900407
6375.616,6.893559
6377.544,6.883143
6379.473,6.875344
6381.401,6.870666
6383.33,6.871228
6385.258,6.86657
6387.187,6.857984
6389.115,6.853923
6391.044,6.855441
6392.973,6.85503
6394.901,6.849447
6396.829,6.842614
6398.758,6.835032
6400.687,6.825315
6402.615,6.819068
6404.543,6.807255
6406.472,6.793279
6408.4,6.780739
6410.329,6.765813
6412.257,6.75386
6414.186,6.74367
6416.114,6.733651
6418.043,6.72264
6419.971,6.711334
6421.9,6.706978
6423.828,6.704524
6425.757,6.700946
6427.686,6.691779
6429.614,6.686222
6431.542,6.682946
6433.471,6.673411
6435.399,6.664206
6437.328,6.655228
6439.256,6.645532
6441.185,6.630365
6443.113,6.612026
6445.042,6.599483
6446.97,6.583024
6448.898,6.566689
6450.827,6.550507
6452.756,6.529199
6454.685,6.509839
6456.613,6.492978
6458.541,6.466874
6460.47,6.436341
6462.398,6.402341
6464.327,6.367236
6466.255,6.324767
6468.184,6.272329
6470.112,6.223683
6472.041,6.175304
6473.969,6.119992
6475.897,6.067525
6477.826,6.021944
6479.755,5.986905
6481.684,5.967757
6483.612,5.961674
6485.54,5.964113
6487.469,5.968319
6489.397,5.97487
6491.326,5.993679
6493.254,6.011883
6495.183,6.029075
6497.111,6.043805
6499.04,6.062738
6500.968,6.081953
6502.896,6.096483
6504.825,6.111106
6506.754,6.124573
6508.682,6.138495
6510.61,6.155424
6512.539,6.165987
6514.468,6.173904
6516.396,6.182197
6518.325,6.189918
6520.253,6.195294
6522.182,6.206
6524.11,6.212238
6526.039,6.2223
6527.967,6.228803
6529.896,6.236731
6531.824,6.247317
6533.753,6.250129
6535.681,6.254199
6537.609,6.258089
6539.538,6.263357
6541.467,6.269206
6543.396,6.271945
6545.324,6.280591
6547.252,6.283928
6549.181,6.288218
6551.109,6.292875
6553.038,6.2945
6554.966,6.302801
6556.895,6.311682
6558.823,6.315947
6560.752,6.315738
6562.68,6.315956
6564.608,6.3222
6566.537,6.330745
6568.466,6.335852
6570.394,6.340007
6572.323,6.351214
6574.251,6.364955
6576.18,6.365693
6578.108,6.370695
6580.037,6.378729
6581.965,6.37837
6583.894,6.379909
6585.822,6.382338
6587.751,6.384269
6589.679,6.385418
6591.607,6.388494
6593.536,6.389059
6595.465,6.389023
6597.393,6.390711
6599.321,6.392393
6601.25,6.396329
6603.179,6.395898
6605.107,6.390746
6607.036,6.391552
6608.964,6.391284
6610.893,6.392805
6612.821,6.388403
6614.75,6.385856
6616.678,6.384844
6618.606,6.383646
6620.535,6.383933
6622.464,6.38473
6624.392,6.380518
6626.32,6.374558
6628.249,6.372442
6630.178,6.370339
6632.106,6.366702
6634.035,6.359245
6635.963,6.359784
6637.892,6.360365
6639.82,6.355177
6641.749,6.349327
6643.677,6.339007
6645.605,6.334455
6647.534,6.332954
6649.463,6.326951
6651.391,6.321494
6653.319,6.317826
6655.248,6.308066
6657.177,6.305287
6659.105,6.303146
6661.034,6.293736
6662.962,6.284276
6664.891,6.279024
6666.819,6.269966
6668.748,6.267276
6670.676,6.268104
6672.604,6.262185
6674.533,6.252988
6676.462,6.247763
6678.39,6.233979
6680.318,6.226717
6682.247,6.221539
6684.176,6.212876
6686.104,6.199475
6688.032,6.194069
6689.961,6.18483
6691.89,6.174645
6693.818,6.166522
6695.747,6.157606
6697.675,6.148355
6699.604,6.13884
6701.532,6.128847
6703.46,6.117321
6705.389,6.10359
6707.317,6.094913
6709.246,6.082336
6711.175,6.07186
6713.103,6.061526
6715.031,6.050293
6716.96,6.038517
6718.889,6.024874
6720.817,6.014626
6722.746,6.006128
6724.674,5.997642
6726.603,5.987365
6728.531,5.975936
6730.459,5.963538
6732.388,5.952634
6734.316,5.945256
6736.245,5.935322
6738.174,5.923264
6740.102,5.914197
6742.03,5.904404
6743.959,5.889464
6745.888,5.881309
6747.816,5.872344
6749.745,5.864963
6751.673,5.854774
6753.602,5.846132
6755.53,5.829954
6757.458,5.816133
6759.387,5.808882
6761.315,5.802418
6763.244,5.794215
6765.173,5.785856
6767.101,5.771046
6769.029,5.757674
6770.958,5.743569
6772.887,5.728552
6774.815,5.711745
6776.743,5.701251
6778.672,5.687234
6780.601,5.669886
6782.529,5.651554
6784.458,5.637983
6786.386,5.619998
6788.314,5.597792
6790.243,5.583264
6792.171,5.564344
6794.1,5.543417
6796.028,5.525723
6797.957,5.508251
6799.886,5.487378
6801.814,5.466599
6803.742,5.44559
6805.671,5.421362
6807.6,5.405797
6809.528,5.392388
6811.457,5.376716
6813.385,5.357976
6815.313,5.336495
6817.242,5.312398
6819.17,5.295066
6821.099,5.276092
6823.027,5.256435
6824.956,5.233002
6826.885,5.211778
6828.813,5.193248
6830.741,5.173544
6832.67,5.1584
6834.599,5.144921
6836.527,5.126208
6838.455,5.113811
6840.384,5.102012
6842.313,5.097206
6844.241,5.087071
6846.169,5.079727
6848.098,5.073032
6850.026,5.063507
6851.955,5.053693
6853.884,5.043652
6855.812,5.034207
6857.74,5.019947
6859.669,5.009838
6861.598,5.000869
6863.526,4.991151
6865.454,4.98201
6867.383,4.969276
6869.312,4.951899
6871.24,4.941629
6873.168,4.932279
6875.097,4.919477
6877.025,4.910303
6878.954,4.896335
6880.882,4.88572
6882.811,4.869215
6884.739,4.851085
6886.668,4.833938
6888.597,4.825583
6890.525,4.815606
6892.453,4.800952
6894.382,4.780406
6896.311,4.765604
6898.239,4.753763
6900.167,4.743655
6902.096,4.73827
6904.024,4.724633
6905.953,4.712921
6907.881,4.708441
6909.81,4.698298
6911.738,4.693115
6913.667,4.684349
6915.596,4.671453
6917.524,4.65578
6919.452,4.642162
6921.381,4.633533
6923.31,4.621215
6925.238,4.602697
6927.166,4.589641
6929.095,4.575432
6931.023,4.555023
6932.952,4.536461
6934.88,4.519552
6936.809,4.498949
6938.737,4.480978
6940.666,4.466082
6942.594,4.445477
6944.523,4.431999
6946.451,4.419949
6948.38,4.403058
6950.309,4.392848
6952.237,4.391263
6954.165,4.392035
6956.094,4.378765
6958.022,4.3766
6959.951,4.380949
6961.879,4.385237
6963.808,4.382754
6965.736,4.378432
6967.665,4.377785
6969.593,4.382146
6971.521,4.382338
6973.45,4.380989
6975.379,4.374575
6977.308,4.371666
6979.236,4.374669
6981.164,4.374139
6983.093,4.367371
6985.021,4.367282
6986.95,4.366004
6988.878,4.363405
6990.807,4.358493
6992.735,4.352106
6994.664,4.345993
6996.592,4.339767
6998.521,4.331225
7000.449,4.321663
7002.378,4.313119
7004.307,4.306445
7006.235,4.298418
7008.163,4.288677
7010.092,4.277322
7012.021,4.269129
7013.949,4.260762
7015.877,4.25475
7017.806,4.247103
7019.734,4.244658
7021.663,4.2438
7023.591,4.234812
7025.52,4.22715
7027.448,4.22504
7029.377,4.232675
7031.305,4.238565
7033.234,4.236761
7035.162,4.237877
7037.091,4.235878
7039.02,4.239707
7040.948,4.24401
7042.876,4.241231
7044.805,4.231335
7046.733,4.221284
7048.662,4.200439
7050.59,4.181776
7052.519,4.168413
7054.447,4.147233
7056.376,4.121528
7058.304,4.101419
7060.232,4.08891
7062.161,4.082074
7064.09,4.077155
7066.019,4.088027
7067.947,4.105947
7069.875,4.127811
7071.804,4.151156
7073.732,4.176042
7075.661,4.198956
7077.589,4.227799
7079.518,4.25823
7081.446,4.28235
7083.375,4.304538
7085.303,4.323713
7087.231,4.333086
7089.16,4.351391
7091.089,4.367509
7093.018,4.390481
7094.946,4.404798
7096.874,4.407992
7098.803,4.418999
7100.731,4.437309
7102.66,4.460933
7104.588,4.491104
7106.517,4.506047
7108.445,4.516379
7110.374,4.540823
7112.302,4.565382
7114.23,4.585931
7116.159,4.616232
7118.088,4.621978
7120.016,4.630479
7121.944,4.651164
7123.873,4.665319
7125.802,4.675104
7127.73,4.676959
7129.659,4.68145
7131.587,4.680617
7133.516,4.680259
7135.444,4.676689
7137.373,4.67444
7139.301,4.661808
7141.229,4.636268
7143.158,4.61972
7145.087,4.592923
7147.015,4.560327
7148.943,4.535145
7150.872,4.50575
7152.801,4.460411
7154.729,4.410937
7156.658,4.355392
7158.586,4.305223
7160.515,4.235809
7162.443,4.148187
7164.372,4.081387
7166.3,4.012068
7168.229,3.954872
7170.157,3.910828
7172.086,3.902195
7174.014,3.902004
7175.942,3.918334
7177.871,3.948623
7179.8,3.999583
7181.729,4.038259
7183.657,4.071068
7185.585,4.111952
7187.514,4.154963
7189.442,4.209363
7191.371,4.259062
7193.299,4.311635
7195.228,4.357945
7197.156,4.408537
7199.085,4.456336
7201.013,4.507813
7202.941,4.561459
7204.87,4.599485
7206.799,4.639606
7208.727,4.698665
7210.655,4.747943
7212.584,4.793442
7214.513,4.834566
7216.441,4.873436
7218.37,4.924457
7220.298,4.961495
7222.227,5.000373
7224.155,5.060173
7226.083,5.107843
7228.012,5.146617
7229.94,5.214821
7231.869,5.265932
7233.798,5.282905
7235.726,5.325438
7237.654,5.367418
7239.583,5.424963
7241.512,5.475637
7243.44,5.490757
7245.369,5.520665
7247.297,5.567806
7249.226,5.607744
7251.154,5.662351
7253.083,5.700278
7255.011,5.73218
7256.939,5.769441
7258.868,5.816361
7260.797,5.866127
7262.725,5.893806
7264.653,5.923832
7266.582,5.972017
7268.511,6.007041
7270.439,6.049418
7272.368,6.095371
7274.296,6.128205
7276.225,6.164947
7278.153,6.211384
7280.082,6.247673
7282.01,6.285782
7283.938,6.323872
7285.867,6.36601
7287.796,6.402185
7289.724,6.439412
7291.652,6.476532
7293.581,6.513278
7295.51,6.541247
7297.438,6.590658
7299.366,6.628428
7301.295,6.648845
7303.224,6.678571
7305.152,6.733347
7307.081,6.763963
7309.009,6.803551
7310.938,6.852943
7312.866,6.875377
7314.794,6.909173
7316.723,6.932081
7318.651,6.959507
7320.58,6.999357
7322.509,7.04186
7324.437,7.054692
7326.365,7.098893
7328.294,7.111261
7330.223,7.121691
7332.151,7.143635
7334.08,7.167811
7336.008,7.189295
7337.937,7.230605
7339.865,7.24861
7341.793,7.247687
7343.722,7.259117
7345.65,7.26832
7347.579,7.294746
7349.508,7.303957
7351.436,7.31402
7353.364,7.332853
7355.293,7.357646
7357.222,7.36895
7359.15,7.390625
7361.079,7.400969
7363.007,7.414993
7364.936,7.432246
7366.864,7.465886
7368.792,7.480553
7370.721,7.486006
7372.649,7.503592
7374.578,7.52937
7376.507,7.529051
7378.435,7.548846
7380.363,7.571083
7382.292,7.577916
7384.221,7.585014
7386.149,7.597134
7388.077,7.605375
7390.006,7.616265
7391.935,7.622322
7393.863,7.626552
7395.792,7.635035
7397.72,7.648128
7399.648,7.652525
7401.577,7.659736
7403.505,7.674773
7405.434,7.674625
7407.362,7.669877
7409.291,7.68275
7411.22,7.688704
7413.148,7.692195
7415.076,7.690944
7417.005,7.692627
7418.934,7.700336
7420.862,7.706107
7422.791,7.705936
7424.719,7.716229
7426.647,7.721569
7428.576,7.725012
7430.504,7.727322
7432.433,7.724878
7434.361,7.726072
7436.29,7.734396
7438.219,7.738279
7440.147,7.738909
7442.075,7.739655
7444.004,7.742156
7445.933,7.750653
7447.861,7.756069
7449.789,7.757965
7451.718,7.757584
7453.646,7.756684
7455.575,7.764879
7457.503,7.765728
7459.432,7.766766
7461.36,7.77017
7463.289,7.779415
7465.218,7.775615
7467.146,7.775701
7469.074,7.780358
7471.003,7.776895
7472.932,7.77282
7474.86,7.77563
7476.788,7.782475
7478.717,7.784039
7480.646,7.783612
7482.574,7.787608
7484.502,7.791792
7486.431,7.792325
7488.359,7.782926
7490.288,7.775454
7492.216,7.778124
7494.145,7.783253
7496.073,7.785154
7498.002,7.775442
7499.931,7.775279
7501.859,7.780813
7503.787,7.778046
7505.716,7.78161
7507.645,7.77892
7509.573,7.774855
7511.501,7.770876
7513.43,7.776818
7515.358,7.777304
7517.287,7.774352
7519.215,7.775325
7521.144,7.775344
7523.072,7.77463
7525.001,7.776777
7526.93,7.769381
7528.858,7.766953
7530.786,7.769112
7532.715,7.765093
7534.644,7.758084
7536.572,7.757786
7538.5,7.757685
7540.429,7.754437
7542.357,7.747787
7544.286,7.748159
7546.214,7.747618
7548.143,7.741946
7550.071,7.74427
7552.0,7.73961
7553.928,7.739361
7555.857,7.744454
7557.785,7.739643
7559.714,7.73255
7561.643,7.733886
7563.571,7.73423
7565.499,7.729127
7567.428,7.726546
7569.356,7.72086
7571.285,7.717192
7573.213,7.711535
7575.142,7.708494
7577.07,7.703169
7578.999,7.699285
7580.927,7.697748
7582.855,7.700848
7584.784,7.692385
7586.713,7.688688
7588.642,7.690016
7590.57,7.688715
7592.498,7.681535
7594.427,7.674331
7596.355,7.669397
7598.284,7.666408
7600.212,7.666478
7602.141,7.666551
7604.069,7.664121
7605.998,7.661419
7607.926,7.655647
7609.854,7.649582
7611.783,7.643231
7613.712,7.634904
7615.641,7.632605
7617.569,7.629704
7619.497,7.621862
7621.426,7.613575
7623.354,7.607694
7625.283,7.602096
7627.211,7.594443
7629.14,7.583717
7631.068,7.579832
7632.997,7.57966
7634.925,7.575766
7636.854,7.565866
7638.782,7.560331
7640.711,7.558115
7642.639,7.550024
7644.568,7.544874
7646.496,7.546086
7648.425,7.539194
7650.354,7.535552
7652.282,7.52819
7654.21,7.51138
7656.139,7.508599
7658.067,7.512833
7659.996,7.509415
7661.924,7.501687
7663.853,7.493924
7665.781,7.489125
7667.71,7.486154
7669.638,7.479304
7671.566,7.473309
7673.495,7.46865
7675.424,7.456892
7677.353,7.456131
7679.281,7.46355
7681.209,7.467924
7683.138,7.456136
7685.066,7.450271
7686.995,7.447705
7688.923,7.441673
7690.852,7.43607
7692.78,7.440556
7694.709,7.436918
7696.637,7.433622
7698.565,7.432409
7700.494,7.42697
7702.423,7.414227
7704.352,7.406511
7706.28,7.408419
7708.208,7.41195
7710.137,7.409611
7712.065,7.395639
7713.994,7.389478
7715.922,7.391307
7717.851,7.391546
7719.779,7.392322
7721.708,7.393201
7723.636,7.384251
7725.564,7.37907
7727.493,7.36799
7729.422,7.356526
7731.35,7.353768
7733.279,7.359146
7735.207,7.360009
7737.136,7.352402
7739.064,7.343579
7740.993,7.339856
7742.921,7.33969
7744.85,7.339777
7746.778,7.338402
7748.707,7.332301
7750.635,7.328635
7752.563,7.324573
7754.492,7.318922
7756.421,7.317941
7758.349,7.312167
7760.277,7.300412
7762.206,7.293135
7764.135,7.291654
7766.063,7.289001
7767.992,7.277104
7769.92,7.270967
7771.849,7.26938
7773.777,7.26983
7775.706,7.267083
7777.634,7.259438
7779.563,7.255312
7781.491,7.256493
7783.42,7.260674
7785.348,7.256408
7787.276,7.251178
7789.205,7.248546
7791.134,7.238781
7793.063,7.233141
7794.991,7.237269
7796.919,7.230469
7798.848,7.222373
7800.776,7.221451
7802.705,7.216278
7804.633,7.206412
7806.562,7.201277
7808.49,7.201514
7810.419,7.20006
7812.347,7.195993
7814.275,7.190789
7816.204,7.185802
7818.133,7.185915
7820.061,7.176875
7821.989,7.169985
7823.918,7.169958
7825.847,7.160664
7827.775,7.147669
7829.704,7.148588
7831.632,7.144763
7833.561,7.140905
7835.489,7.134808
7837.417,7.125236
7839.346,7.116811
7841.274,7.11658
7843.203,7.113433
7845.132,7.105435
7847.06,7.096554
7848.988,7.08593
7850.917,7.08038
7852.846,7.074811
7854.774,7.066326
7856.703,7.051019
7858.631,7.045251
7860.56,7.046305
7862.488,7.037886
7864.417,7.020079
7866.345,7.019178
7868.273,7.020196
7870.202,7.012676
7872.131,6.997204
7874.059,6.992362
7875.987,6.983373
7877.916,6.978086
7879.845,6.961563
7881.773,6.947956
7883.702,6.935708
7885.63,6.934181
7887.559,6.929871
7889.487,6.921317
7891.416,6.911758
7893.344,6.897614
7895.272,6.8836
7897.201,6.877936
7899.13,6.888298
7901.058,6.865405
7902.986,6.844345
7904.915,6.834324
7906.844,6.824109
7908.772,6.812419
7910.7,6.799682
7912.629,6.790661
7914.558,6.780421
7916.486,6.762434
7918.415,6.747686
7920.343,6.737919
7922.271,6.733042
7924.2,6.73154
7926.128,6.720879
7928.057,6.700604
7929.985,6.684242
7931.914,6.672395
7933.843,6.663802
7935.771,6.658678
7937.699,6.645643
7939.628,6.627831
7941.557,6.612976
7943.485,6.598531
7945.414,6.580275
7947.342,6.559126
7949.271,6.550029
7951.199,6.543334
7953.127,6.527494
7955.056,6.518951
7956.984,6.498819
7958.913,6.478662
7960.842,6.465512
7962.77,6.4507
7964.698,6.445596
7966.627,6.430438
7968.556,6.410975
7970.484,6.395956
7972.413,6.375161
7974.341,6.358536
7976.27,6.346966
7978.198,6.330387
7980.126,6.322654
7982.055,6.307205
7983.983,6.287109
7985.912,6.268737
7987.841,6.251456
7989.769,6.226294
7991.697,6.21109
7993.626,6.203202
7995.555,6.19162
7997.483,6.167462
7999.411,6.145306
8001.34,6.12761
8003.269,6.107648
8005.197,6.096524
8007.125,6.081868
8009.054,6.063518
8010.982,6.040097
8012.911,6.019423
8014.839,6.004698
8016.768,5.99007
8018.696,5.962306
8020.625,5.934812
8022.554,5.914312
8024.482,5.898924
8026.41,5.882649
8028.339,5.861943
8030.268,5.838124
8032.196,5.81541
8034.125,5.794706
8036.053,5.775567
8037.981,5.760566
8039.91,5.739941
8041.838,5.715599
8043.767,5.700018
8045.695,5.675653
8047.624,5.644433
8049.553,5.622845
8051.481,5.602406
8053.409,5.579628
8055.338,5.558077
8057.267,5.533718
8059.195,5.510468
8061.124,5.492159
8063.052,5.463376
8064.98,5.431512
8066.909,5.410851
8068.837,5.39892
8070.766,5.371488
8072.694,5.338602
8074.623,5.318755
8076.552,5.299908
8078.48,5.276759
8080.408,5.246514
8082.337,5.220633
8084.266,5.196506
8086.194,5.166179
8088.122,5.143892
8090.051,5.120971
8091.979,5.100754
8093.908,5.079022
8095.836,5.053421
8097.765,5.02503
8099.693,5.000509
8101.622,4.972209
8103.551,4.943339
8105.479,4.91334
8107.407,4.885734
8109.336,4.858753
8111.265,4.839721
8113.192,4.820439
8115.121,4.792325
8117.05,4.760864
8118.979,4.729957
8120.907,4.70437
8122.835,4.682915
8124.764,4.659151
8126.692,4.621345
8128.621,4.587939
8130.55,4.560888
8132.478,4.53416
8134.406,4.508801
8136.335,4.482764
8138.264,4.443515
8140.191,4.408388
8142.12,4.390757
8144.049,4.374379
8145.978,4.34779
8147.906,4.308438
8149.834,4.27735
8151.763,4.255515
8153.691,4.232973
8155.62,4.202117
8157.548,4.181056
8159.477,4.154856
8161.405,4.117897
8163.334,4.092184
8165.263,4.065687
8167.19,4.027875
8169.119,4.011868
8171.048,4.000216
8172.977,3.977032
8174.905,3.946022
8176.833,3.92051
8178.762,3.897943
8180.69,3.88357
8182.619,3.858213
8184.547,3.837418
8186.476,3.823231
8188.404,3.800717
8190.333,3.794805
8192.262,3.780787
8194.189,3.752611
8196.118,3.739668
8198.047,3.726965
8199.976,3.712327
8201.903,3.708967
8203.832,3.696544
8205.761,3.685921
8207.689,3.674977
8209.618,3.662172
8211.546,3.659707
8213.475,3.65517
8215.403,3.651283
8217.332,3.64084
8219.261,3.641871
8221.188,3.642277
8223.117,3.641429
8225.046,3.643771
8226.975,3.635508
8228.902,3.635938
8230.831,3.638154
8232.76,3.634812
8234.688,3.630898
8236.617,3.63523
8238.545,3.63865
8240.474,3.646508
8242.402,3.648232
8244.331,3.645135
8246.259,3.644744
8248.188,3.653875
8250.116,3.656756
8252.045,3.658119
8253.974,3.659203
8255.901,3.675887
8257.83,3.681887
8259.759,3.684191
8261.688,3.692742
8263.616,3.70294
8265.544,3.704184
8267.473,3.705439
8269.401,3.709955
8271.33,3.728959
8273.258,3.735851
8275.187,3.750208
8277.115,3.765098
8279.044,3.769802
8280.973,3.772578
8282.9,3.79479
8284.829,3.81291
8286.758,3.825536
8288.687,3.839764
8290.614,3.857109
8292.543,3.875048
8294.472,3.886443
8296.4,3.903802
8298.329,3.920641
8300.257,3.928021
8302.186,3.93752
8304.114,3.958971
8306.043,3.977527
8307.972,3.994408
8309.899,4.013574
8311.828,4.032763
8313.757,4.056054
8315.686,4.073814
8317.613,4.089105
8319.542,4.092799
8321.471,4.109115
8323.399,4.14124
8325.328,4.16227
8327.256,4.161606
8329.185,4.178418
8331.113,4.207211
8333.042,4.225655
8334.97,4.240904
8336.898,4.261651
8338.827,4.28078
8340.756,4.30021
8342.685,4.320713
8344.612,4.350724
8346.541,4.374199
8348.47,4.398109
8350.398,4.422509
8352.327,4.442591
8354.255,4.462077
8356.184,4.485439
8358.112,4.506175
8360.041,4.525683
8361.969,4.545211
8363.897,4.574374
8365.826,4.607377
8367.755,4.627534
8369.684,4.650496
8371.611,4.672774
8373.54,4.688612
8375.469,4.710055
8377.397,4.731325
8379.325,4.754334
8381.254,4.78162
8383.183,4.803308
8385.111,4.826915
8387.04,4.836138
8388.968,4.847704
8390.896,4.872658
8392.825,4.888733
8394.754,4.896452
8396.683,4.904663
8398.61,4.912531
8400.539,4.918971
8402.468,4.921915
8404.396,4.925912
8406.324,4.943219
8408.253,4.947365
8410.182,4.94241
8412.11,4.948307
8414.039,4.959818
8415.967,4.97683
8417.896,4.98355
8419.824,4.981298
8421.753,4.98235
8423.681,4.980962
8425.609,4.993984
8427.538,5.005999
8429.467,5.016697
8431.396,5.037414
8433.323,5.054148
8435.252,5.076077
8437.181,5.101532
8439.109,5.125564
8441.037,5.152591
8442.966,5.186716
8444.895,5.21201
8446.823,5.240108
8448.752,5.263302
8450.68,5.297099
8452.608,5.326535
8454.537,5.350266
8456.466,5.37733
8458.395,5.396438
8460.322,5.424428
8462.251,5.444834
8464.18,5.471651
8466.108,5.494113
8468.036,5.508099
8469.965,5.531028
8471.894,5.549833
8473.822,5.570939
8475.751,5.598526
8477.679,5.622922
8479.607,5.645937
8481.536,5.676877
8483.465,5.70214
8485.393,5.737955
8487.321,5.760897
8489.25,5.777551
8491.179,5.801698
8493.107,5.824432
8495.035,5.837875
8496.964,5.856169
8498.893,5.873356
8500.821,5.88441
8502.75,5.899268
8504.678,5.921251
8506.606,5.936758
8508.535,5.939355
8510.464,5.940398
8512.392,5.949079
8514.32,5.961728
8516.249,5.974574
8518.178,5.991883
8520.106,5.997481
8522.034,6.015426
8523.963,6.035098
8525.892,6.036007
8527.82,6.042096
8529.748,6.054397
8531.677,6.060644
8533.605,6.067092
8535.534,6.067694
8537.463,6.06989
8539.391,6.053099
8541.319,6.04579
8543.248,6.037932
8545.177,6.01431
8547.105,6.002248
8549.033,5.99182
8550.962,5.970075
8552.891,5.945521
8554.819,5.920556
8556.747,5.896113
8558.676,5.8674
8560.604,5.851029
8562.533,5.833364
8564.462,5.827107
8566.39,5.840471
8568.318,5.860622
8570.247,5.877354
8572.176,5.90735
8574.104,5.948354
8576.032,5.97821
8577.961,5.999995
8579.89,6.034541
8581.818,6.069805
8583.746,6.097915
8585.675,6.124116
8587.604,6.168428
8589.532,6.217508
8591.461,6.266335
8593.389,6.303485
8595.317,6.337843
8597.246,6.373785
8599.175,6.418447
8601.103,6.464027
8603.031,6.519441
8604.96,6.554765
8606.889,6.594118
8608.817,6.64507
8610.745,6.683218
8612.674,6.713321
8614.603,6.754892
8616.531,6.794748
8618.459,6.841431
8620.388,6.885311
8622.316,6.911418
8624.245,6.932355
8626.174,6.97998
8628.102,7.021149
8630.03,7.041205
8631.959,7.074872
8633.888,7.126065
8635.816,7.15352
8637.744,7.174428
8639.673,7.197751
8641.602,7.22711
8643.53,7.248572
8645.458,7.279694
8647.387,7.308818
8649.315,7.329842
8651.244,7.356116
8653.173,7.378216
8655.101,7.39759
8657.029,7.424529
8658.958,7.45326
8660.887,7.479154
8662.814,7.491926
8664.743,7.499622
8666.672,7.526114
8668.601,7.554217
8670.529,7.563879
8672.457,7.576042
8674.386,7.604293
8676.314,7.618184
8678.243,7.622765
8680.172,7.640189
8682.1,7.66221
8684.028,7.682804
8685.957,7.698674
8687.886,7.727578
8689.813,7.742865
8691.742,7.757229
8693.671,7.775896
8695.6,7.801407
8697.528,7.819129
8699.456,7.836735
8701.385,7.856008
8703.313,7.884876
8705.242,7.90604
8707.17,7.93417
8709.099,7.950281
8711.027,7.973629
8712.956,7.995471
8714.885,8.012079
8716.813,8.025468
8718.741,8.044479
8720.67,8.063934
8722.599,8.08919
8724.527,8.129118
8726.455,8.140601
8728.384,8.144008
8730.313,8.168097
8732.241,8.198769
8734.169,8.219232
8736.098,8.231413
8738.026,8.250039
8739.955,8.279065
8741.884,8.299399
8743.812,8.31829
8745.74,8.333372
8747.669,8.342297
8749.598,8.374102
8751.525,8.388984
8753.454,8.400223
8755.383,8.424943
8757.312,8.444888
8759.24,8.451166
8761.168,8.468312
8763.097,8.48116
8765.025,8.491282
8766.954,8.503427
8768.882,8.52521
8770.811,8.537536
8772.739,8.551414
8774.668,8.55645
8776.597,8.561257
8778.524,8.579754
8780.453,8.605974
8782.382,8.622917
8784.311,8.626956
8786.239,8.619564
8788.167,8.633569
8790.096,8.655272
8792.024,8.661899
8793.953,8.666502
8795.881,8.666327
8797.81,8.670909
8799.738,8.690151
8801.667,8.692806
8803.596,8.70041
8805.523,8.725204
8807.452,8.73842
8809.381,8.744998
8811.31,8.744463
8813.237,8.737445
8815.166,8.737212
8817.095,8.748055
8819.023,8.754789
8820.952,8.750204
8822.88,8.758584
8824.809,8.766934
8826.737,8.767628
8828.666,8.7772
8830.595,8.797567
8832.522,8.802802
8834.451,8.797482
8836.38,8.794206
8838.309,8.806856
8840.236,8.815354
8842.165,8.802021
8844.094,8.797181
8846.022,8.816598
8847.951,8.823766
8849.879,8.813873
8851.808,8.816252
8853.736,8.822795
8855.665,8.832884
8857.593,8.826407
8859.521,8.829947
8861.45,8.834421
8863.379,8.845255
8865.308,8.851246
8867.235,8.84845
8869.164,8.853765
8871.093,8.847243
8873.021,8.851774
8874.95,8.853885
8876.878,8.845408
8878.807,8.85554
8880.735,8.855032
8882.664,8.849908
8884.592,8.857011
8886.521,8.855237
8888.449,8.85635
8890.378,8.860099
8892.307,8.862
8894.234,8.850491
8896.163,8.857608
8898.092,8.869622
8900.021,8.87234
8901.948,8.87313
8903.877,8.861881
8905.806,8.845897
8907.734,8.86014
8909.663,8.869332
8911.591,8.861248
8913.52,8.852519
8915.448,8.85684
8917.377,8.860561
8919.306,8.853142
8921.233,8.86987
8923.162,8.879735
8925.091,8.869255
8927.02,8.862998
8928.947,8.861048
8930.876,8.855337
8932.805,8.853574
8934.733,8.851274
8936.662,8.858603
8938.59,8.853945
8940.519,8.849224
8942.447,8.85168
8944.376,8.853447
8946.304,8.850887
8948.232,8.859848
8950.161,8.870187
8952.09,8.87283
8954.019,8.86621
8955.946,8.861176
8957.875,8.855989
8959.804,8.849634
8961.732,8.849123
8963.661,8.860624
8965.589,8.852577
8967.518,8.86449
8969.446,8.869166
8971.375,8.856802
8973.303,8.857862
8975.231,8.871383
8977.16,8.87515
8979.089,8.863577
8981.018,8.872582
8982.945,8.881617
8984.874,8.876938
8986.803,8.880436
8988.731,8.884617
8990.659,8.876393
8992.588,8.877948
8994.517,8.880171
8996.445,8.890047
8998.374,8.889215
9000.302,8.880787
9002.23,8.886642
9004.159,8.888264
9006.088,8.887367
9008.017,8.891602
9009.944,8.898533
9011.873,8.907163
9013.802,8.903715
9015.73,8.910429
9017.658,8.912523
9019.587,8.914059
9021.516,8.922639
9023.444,8.916723
9025.373,8.918355
9027.301,8.919293
9029.229,8.923908
9031.158,8.91772
9033.087,8.919779
9035.015,8.918704
9036.943,8.928975
9038.872,8.932892
9040.801,8.924837
9042.729,8.916216
9044.657,8.930929
9046.586,8.949201
9048.515,8.956591
9050.443,8.935361
9052.372,8.939585
9054.3,8.949661
9056.229,8.93582
9058.157,8.94295
9060.086,8.965083
9062.014,8.962
9063.942,8.947873
9065.871,8.958667
9067.8,8.960708
9069.729,8.948093
9071.656,8.954039
9073.585,8.957206
9075.514,8.959049
9077.442,8.952198
9079.37,8.958365
9081.299,8.972605
9083.228,8.967879
9085.156,8.97046
9087.085,8.973938
9089.013,8.984831
9090.941,8.976744
9092.87,8.945307
9094.799,8.955078
9096.727,8.963366
9098.655,8.958936
9100.584,8.967803
9102.513,8.981433
9104.441,8.978617
9106.369,8.961475
9108.298,8.963486
9110.227,8.951166
9112.155,8.944607
9114.084,8.946046
9116.012,8.947823
9117.94,8.94373
9119.869,8.945592
9121.798,8.946363
9123.726,8.96171
9125.654,8.968143
9127.583,8.966459
9129.512,8.964411
9131.44,8.961236
9133.368,8.956075
9135.297,8.951494
9137.226,8.954059
9139.154,8.970283
9141.082,8.962016
9143.011,8.960487
9144.939,8.966824
9146.868,8.960045
9148.797,8.957131
9150.725,8.96648
9152.653,8.974852
9154.582,8.966217
9156.511,8.960533
9158.439,8.964711
9160.367,8.968944
9162.296,8.958399
9164.225,8.948551
9166.153,8.954087
9168.081,8.958316
9170.01,8.936737
9171.938,8.940547
9173.867,8.954408
9175.796,8.95639
9177.724,8.952041
9179.652,8.943117
9181.581,8.945609
9183.51,8.940696
9185.438,8.943844
9187.366,8.932901
9189.295,8.931301
9191.224,8.943961
9193.152,8.952922
9195.08,8.947528
9197.009,8.9417
9198.938,8.937275
9200.866,8.93643
9202.795,8.932637
9204.723,8.920259
9206.651,8.90738
9208.58,8.92138
9210.509,8.924636
9212.437,8.927249
9214.365,8.926848
9216.294,8.911646
9218.223,8.898615
9220.151,8.894513
9222.079,8.900668
9224.008,8.897452
9225.937,8.915307
9227.865,8.914909
9229.793,8.921506
9231.722,8.921344
9233.65,8.911037
9235.579,8.885866
9237.508,8.87953
9239.436,8.886102
9241.364,8.902245
9243.293,8.89349
9245.222,8.886543
9247.15,8.896566
9249.078,8.90717
9251.007,8.919068
9252.936,8.918319
9254.864,8.90212
9256.792,8.887288
9258.721,8.895222
9260.649,8.888633
9262.578,8.890337
9264.507,8.895767
9266.435,8.885041
9268.363,8.877531
9270.292,8.884074
9272.221,8.882115
9274.148,8.869354
9276.077,8.867848
9278.006,8.87809
9279.935,8.885119
9281.863,8.890099
9283.791,8.8848
9285.72,8.875684
9287.648,8.860127
9289.577,8.880591
9291.506,8.897024
9293.434,8.894233
9295.362,8.874837
9297.291,8.879081
9299.22,8.877991
9301.147,8.866445
9303.076,8.869182
9305.005,8.884588
9306.934,8.884344
9308.862,8.864136
9310.79,8.865238
9312.719,8.881993
9314.647,8.885548
9316.576,8.878099
9318.504,8.863975
9320.433,8.859194
9322.361,8.873309
9324.29,8.879311
9326.219,8.884495
9328.146,8.889888
9330.075,8.893096
9332.004,8.874919
9333.933,8.877163
9335.861,8.866079
9337.789,8.871361
9339.718,8.886575
9341.646,8.876027
9343.575,8.874949
9345.503,8.878495
9347.432,8.883682
9349.36,8.874636
9351.289,8.882051
9353.218,8.88147
9355.146,8.876388
9357.074,8.85996
9359.003,8.865574
9360.932,8.870703
9362.859,8.857107
9364.788,8.859222
9366.717,8.871718
9368.646,8.869145
9370.574,8.859588
9372.502,8.853822
9374.431,8.836359
9376.359,8.820077
9378.288,8.830142
9380.217,8.850994
9382.145,8.848351
9384.073,8.843953
9386.002,8.86158
9387.931,8.824749
9389.858,8.799032
9391.787,8.810856
9393.716,8.833416
9395.645,8.833532
9397.573,8.826867
9399.501,8.818267
9401.43,8.80982
9403.358,8.809113
9405.287,8.812099
9407.215,8.79448
9409.144,8.797994
9411.072,8.814679
9413.001,8.822023
9414.93,8.808257
9416.857,8.791282
9418.786,8.788039
9420.715,8.787622
9422.644,8.788414
9424.571,8.783249
9426.5,8.784691
9428.429,8.784312
9430.357,8.771619
9432.286,8.75782
9434.214,8.74386
9436.143,8.7381
9438.071,8.734283
9440.0,8.733415
9441.929,8.738751
9443.856,8.721863
9445.785,8.703905
9447.714,8.709166
9449.643,8.722797
9451.57,8.711627
9453.499,8.711694
9455.428,8.713381
9457.356,8.702627
9459.285,8.70099
9461.213,8.706605
9463.142,8.703986
9465.07,8.700551
9466.999,8.698037
9468.927,8.68521
9470.855,8.6745
9472.784,8.663545
9474.713,8.658935
9476.642,8.671662
9478.569,8.682577
9480.498,8.690475
9482.427,8.696598
9484.355,8.677842
9486.284,8.655051
9488.212,8.648134
9490.141,8.659891
9492.069,8.655644
9493.998,8.639908
9495.926,8.657542
9497.854,8.663269
9499.783,8.643427
9501.712,8.645027
9503.641,8.642368
9505.568,8.632286
9507.497,8.63405
9509.426,8.640494
9511.354,8.650497
9513.282,8.643632
9515.211,8.630877
9517.14,8.623674
9519.068,8.614988
9520.997,8.607575
9522.925,8.607558
9524.854,8.616647
9526.782,8.613867
9528.711,8.598629
9530.64,8.614738
9532.567,8.620235
9534.496,8.605194
9536.425,8.598731
9538.354,8.612431
9540.281,8.60228
9542.21,8.588064
9544.139,8.576531
9546.067,8.573071
9547.996,8.587017
9549.924,8.594838
9551.853,8.585042
9553.781,8.562704
9555.71,8.561387
9557.638,8.565577
9559.566,8.56398
9561.495,8.572968
9563.424,8.561872
9565.353,8.546082
9567.28,8.5591
9569.209,8.541092
9571.138,8.534969
9573.066,8.562219
9574.995,8.569513
9576.923,8.55379
9578.852,8.546738
9580.78,8.548517
9582.709,8.514016
9584.637,8.505405
9586.565,8.532017
9588.494,8.538625
9590.423,8.525011
9592.352,8.518277
9594.279,8.517322
9596.208,8.517533
9598.137,8.526337
9600.065,8.530489
9601.993,8.530919
9603.922,8.541438
9605.851,8.534151
9607.779,8.544384
9609.708,8.556895
9611.636,8.570049
9613.564,8.571715
9615.493,8.563702
9617.422,8.569078
9619.351,8.570667
9621.278,8.569533
9623.207,8.579586
9625.136,8.593101
9627.064,8.591537
9628.992,8.602019
9630.921,8.606717
9632.85,8.594593
9634.778,8.595043
9636.707,8.614901
9638.635,8.618916
9640.563,8.61799
9642.492,8.640614
9644.421,8.664875
9646.349,8.681752
9648.277,8.66742
9650.206,8.671724
9652.135,8.67466
9654.063,8.669654
9655.991,8.690593
9657.92,8.695297
9659.849,8.687252
9661.777,8.707489
9663.706,8.71669
9665.634,8.695168
9667.563,8.715066
9669.491,8.747733
9671.42,8.756613
9673.348,8.758399
9675.276,8.769131
9677.205,8.763277
9679.134,8.74198
9681.063,8.759377
9682.99,8.797221
9684.919,8.804386
9686.848,8.81839
9688.776,8.829279
9690.704,8.815124
9692.633,8.805594
9694.562,8.825822
9696.49,8.839087
9698.419,8.826279
9700.347,8.829074
9702.275,8.824507
9704.204,8.833349
9706.133,8.84449
9708.062,8.862302
9709.989,8.880743
9711.918,8.897597
9713.847,8.912722
9715.775,8.929101
9717.703,8.927355
9719.632,8.913856
9721.561,8.92417
9723.489,8.936047
9725.418,8.939771
9727.346,8.94027
9729.274,8.961388
9731.203,8.974391
9733.132,8.967824
9735.06,8.97141
9736.988,8.979681
9738.917,8.983546
9740.846,8.988848
9742.774,8.983471
9744.702,8.984921
9746.631,8.985532
9748.56,9.000284
9750.488,9.027497
9752.416,9.042967
9754.345,9.040083
9756.273,9.06294
9758.202,9.064465
9760.131,9.037749
9762.059,9.027268
9763.987,9.029812
9765.916,9.043289
9767.845,9.036394
9769.773,9.047129
9771.701,9.048545
9773.63,9.045884
9775.559,9.05631
9777.487,9.056269
9779.415,9.053843
9781.344,9.078464
9783.272,9.078116
9785.201,9.051931
9787.13,9.081785
9789.058,9.100802
9790.986,9.089431
9792.915,9.076424
9794.844,9.082026
9796.771,9.10426
9798.7,9.099998
9800.629,9.09812
9802.558,9.097711
9804.486,9.107671
9806.414,9.104836
9808.343,9.074461
9810.271,9.079847
9812.2,9.090578
9814.129,9.082722
9816.057,9.085588
9817.985,9.106693
9819.914,9.105843
9821.843,9.111422
9823.771,9.102722
9825.699,9.091223
9827.628,9.090477
9829.557,9.110064
9831.485,9.1266
9833.413,9.120772
9835.342,9.130127
9837.271,9.151643
9839.199,9.124793
9841.127,9.094646
9843.056,9.123886
9844.984,9.169777
9846.913,9.162457
9848.842,9.15215
9850.77,9.180101
9852.698,9.19756
9854.627,9.183266
9856.556,9.188251
9858.484,9.203323
9860.412,9.214334
9862.341,9.21179
9864.27,9.230643
9866.198,9.232866
9868.126,9.207331
9870.055,9.202982
9871.983,9.236857
9873.912,9.247274
9875.841,9.25145
9877.769,9.289112
9879.697,9.296062
9881.626,9.296589
9883.555,9.301606
9885.482,9.309809
9887.411,9.318234
9889.34,9.308331
9891.269,9.295115
9893.197,9.321832
9895.125,9.336711
9897.054,9.307433
9898.982,9.294189
9900.911,9.312825
9902.84,9.347258
9904.768,9.375333
9906.696,9.385471
9908.625,9.369761
9910.554,9.371621
9912.481,9.383633
9914.41,9.386674
9916.339,9.407324
9918.268,9.41692
9920.196,9.394195
9922.124,9.391627
9924.053,9.398571
9925.981,9.418285
9927.91,9.435156
9929.838,9.410573
9931.767,9.416623
9933.695,9.430662
9935.624,9.433216
9937.553,9.458172
9939.48,9.475697
9941.409,9.46896
9943.338,9.481766
9945.267,9.503446
9947.195,9.506143
9949.123,9.495991
9951.052,9.498701
9952.98,9.499294
9954.909,9.49903
9956.837,9.534996
9958.766,9.542437
9960.694,9.524865
9962.623,9.529432
9964.552,9.535593
9966.479,9.527027
9968.408,9.540055
9970.337,9.560566
9972.266,9.580094
9974.193,9.579888
9976.122,9.571834
9978.051,9.569011
9979.979,9.566864
9981.908,9.563087
9983.836,9.588339
9985.765,9.583858
9987.693,9.569117
9989.622,9.584243
9991.551,9.60776
9993.479,9.61477
9995.407,9.600164
9997.336,9.606533
9999.265,9.605962
10001.19,9.579143
10003.12,9.594862
10005.05,9.61375
10006.98,9.598557
10008.91,9.595064
10010.83,9.625148
10012.76,9.652449
10014.69,9.670103
10016.62,9.659223
10018.55,9.640607
10020.48,9.616693
10022.41,9.616364
10024.33,9.645634
10026.26,9.657896
10028.19,9.649554
10030.12,9.651053
10032.05,9.655046
10033.98,9.675587
10035.91,9.669614
10037.83,9.672708
10039.76,9.68391
10041.69,9.702732
10043.62,9.733202
10045.55,9.717784
10047.48,9.702611
10049.41,9.718223
10051.33,9.722754
10053.26,9.708406
10055.19,9.717201
10057.12,9.726879
10059.05,9.733513
10060.98,9.739388
10062.9,9.751699
10064.83,9.71781
10066.76,9.714248
10068.69,9.726357
10070.62,9.729464
10072.55,9.757933
10074.48,9.760234
10076.4,9.752538
10078.33,9.738304
10080.26,9.747486
10082.19,9.751204
10084.12,9.726648
10086.05,9.742751
10087.98,9.765296
10089.9,9.733302
10091.83,9.752841
10093.76,9.781771
10095.69,9.772239
10097.62,9.760022
10099.55,9.785844
10101.47,9.814865
10103.4,9.798098
10105.33,9.768289
10107.26,9.776036
10109.19,9.78518
10111.12,9.775226
10113.05,9.77291
10114.97,9.763784
10116.9,9.779908
10118.83,9.780462
10120.76,9.781826
10122.69,9.803223
10124.62,9.832007
10126.54,9.813508
10128.47,9.808975
10130.4,9.808115
10132.33,9.795754
10134.26,9.806415
10136.19,9.81997
10138.12,9.857431
10140.04,9.840129
10141.97,9.819956
10143.9,9.841084
10145.83,9.854553
10147.76,9.825258
10149.69,9.810653
10151.62,9.831407
10153.54,9.82808
10155.47,9.809167
10157.4,9.805646
10159.33,9.790891
10161.26,9.792702
10163.19,9.822721
10165.12,9.866843
10167.04,9.83776
10168.97,9.80828
10170.9,9.811847
10172.83,9.831592
10174.76,9.829631
10176.69,9.813354
10178.61,9.79064
10180.54,9.802305
10182.47,9.843681
10184.4,9.839271
10186.33,9.837146
10188.26,9.84051
10190.19,9.847503
10192.11,9.826653
10194.04,9.830681
10195.97,9.847929
10197.9,9.834274
10199.83,9.819349
10201.76,9.820021
10203.69,9.841037
10205.61,9.853932
10207.54,9.865915
10209.47,9.860807
10211.4,9.857221
10213.33,9.842288
10215.26,9.849732
10217.18,9.862339
10219.11,9.869186
10221.04,9.910368
10222.97,9.894479
10224.9,9.866808
10226.83,9.847056
10228.76,9.860925
10230.68,9.847287
10232.61,9.845978
10234.54,9.848467
10236.47,9.856232
10238.4,9.863998
10240.33,9.860258
10242.25,9.837058
10244.18,9.818723
10246.11,9.813927
10248.04,9.805418
10249.97,9.82474
10251.9,9.847582
10253.83,9.868179
10255.75,9.849236
10257.68,9.842745
10259.61,9.869506
10261.54,9.881591
10263.47,9.884491
10265.4,9.856903
10267.33,9.832224
10269.25,9.844227
10271.18,9.823318
10273.11,9.800804
10275.04,9.839441
10276.97,9.855162
10278.9,9.87114
10280.83,9.85316
10282.75,9.826443
10284.68,9.835307
10286.61,9.854942
10288.54,9.845775
10290.47,9.833056
10292.4,9.841325
10294.32,9.854935
10296.25,9.866606
10298.18,9.898785
10300.11,9.898229
10302.04,9.866071
10303.97,9.854609
10305.9,9.838438
10307.82,9.842545
10309.75,9.82626
10311.68,9.821268
10313.61,9.817208
10315.54,9.851753
10317.47,9.842162
10319.4,9.790675
10321.32,9.80732
10323.25,9.825736
10325.18,9.829034
10327.11,9.812859
10329.04,9.835627
10330.97,9.83115
10332.89,9.832396
10334.82,9.864731
10336.75,9.853216
10338.68,9.844858
10340.61,9.844502
10342.54,9.80639
10344.47,9.814879
10346.39,9.822948
10348.32,9.820505
10350.25,9.824615
10352.18,9.833538
10354.11,9.833307
10356.04,9.852908
10357.96,9.878774
10359.89,9.859911
10361.82,9.808276
10363.75,9.829365
10365.68,9.851748
10367.61,9.833268
10369.54,9.822911
10371.46,9.873915
10373.39,9.8882
10375.32,9.832616
10377.25,9.792574
10379.18,9.805511
10381.11,9.816838
10383.04,9.819639
10384.96,9.820161
10386.89,9.821651
10388.82,9.821729
10390.75,9.818689
10392.68,9.822174
10394.61,9.84339
10396.54,9.8427
10398.46,9.811241
10400.39,9.788149
10402.32,9.83969
10404.25,9.826416
10406.18,9.833072
10408.11,9.816082
10410.03,9.812043
10411.96,9.784996
10413.89,9.795735
10415.82,9.781096
10417.75,9.776748
10419.68,9.81047
10421.61,9.817732
10423.53,9.807503
10425.46,9.8268
10427.39,9.823917
10429.32,9.778259
10431.25,9.800478
10433.18,9.799231
10435.1,9.778868
10437.03,9.789828
10438.96,9.770225
10440.89,9.763262
10442.82,9.809037
10444.75,9.816397
10446.68,9.774167
10448.6,9.737316
10450.53,9.731369
10452.46,9.747051
10454.39,9.775217
10456.32,9.772879
10458.25,9.744704
10460.18,9.740588
10462.1,9.742459
10464.03,9.749386
10465.96,9.726264
10467.89,9.72179
10469.82,9.7005
10471.75,9.718992
10473.67,9.731524
10475.6,9.724263
10477.53,9.733148
10479.46,9.724321
10481.39,9.683809
10483.32,9.709582
10485.25,9.721148
10487.17,9.69833
10489.1,9.689393
10491.03,9.71973
10492.96,9.723235
10494.89,9.705719
10496.82,9.697537
10498.75,9.675098
10500.67,9.63433
10502.6,9.634799
10504.53,9.630489
10506.46,9.644559
10508.39,9.634648
10510.32,9.635913
10512.25,9.62563
10514.17,9.628321
10516.1,9.636865
10518.03,9.627274
10519.96,9.623386
10521.89,9.61592
10523.82,9.619239
10525.74,9.564462
10527.67,9.540755
10529.6,9.567483
10531.53,9.552115
10533.46,9.530355
10535.39,9.545192
10537.32,9.553309
10539.24,9.518844
10541.17,9.485838
10543.1,9.513981
10545.03,9.513697
10546.96,9.490241
10548.89,9.494102
10550.81,9.460606
10552.74,9.447982
10554.67,9.474297
10556.6,9.435219
10558.53,9.41948
10560.46,9.417788
10562.39,9.411988
10564.31,9.410434
10566.24,9.417281
10568.17,9.349484
10570.1,9.311256
10572.03,9.335401
10573.96,9.337906
10575.89,9.320413
10577.81,9.241675
10579.74,9.205783
10581.67,9.252584
10583.6,9.262001
10585.53,9.209639
10587.46,9.203375
10589.38,9.185755
10591.31,9.161914
10593.24,9.151905
10595.17,9.172298
10597.1,9.155418
10599.03,9.101248
10600.96,9.120223
10602.88,9.151021
10604.81,9.090065
10606.74,9.070023
10608.67,9.086497
10610.6,9.029715
10612.53,8.961958
10614.46,8.910733
10616.38,8.932688
10618.31,8.917269
10620.24,8.885167
10622.17,8.866681
10624.1,8.858918
10626.03,8.854935
10627.96,8.846779
10629.88,8.807167
10631.81,8.762803
10633.74,8.725863
10635.67,8.670458
10637.6,8.682193
10639.53,8.674555
10641.45,8.64883
10643.38,8.652444
10645.31,8.634142
10647.24,8.624828
10649.17,8.574623
10651.1,8.509333
10653.03,8.533004
10654.95,8.522718
10656.88,8.464664
10658.81,8.43472
10660.74,8.41711
10662.67,8.420844
10664.6,8.408117
10666.52,8.376114
10668.45,8.34813
10670.38,8.332461
10672.31,8.317275
10674.24,8.300069
10676.17,8.278924
10678.1,8.286489
10680.02,8.258482
10681.95,8.22697
10683.88,8.214949
10685.81,8.174251
10687.74,8.15657
10689.67,8.140777
10691.59,8.152742
10693.52,8.157856
10695.45,8.148499
10697.38,8.137109
10699.31,8.093424
10701.24,8.069207
10703.17,8.084631
10705.09,8.129972
10707.02,8.110233
10708.95,8.090719
10710.88,8.094836
10712.81,8.044858
10714.74,8.056384
10716.67,8.034231
10718.59,8.022892
10720.52,8.014325
10722.45,8.063803
10724.38,8.091843
10726.31,8.086586
10728.24,8.068801
10730.17,8.054935
10732.09,8.006527
10734.02,8.048283
10735.95,8.08677
10737.88,8.069598
10739.81,8.081597
10741.74,8.096468
10743.67,8.078199
10745.59,8.030369
10747.52,8.036844
10749.45,8.090664
10751.38,8.103304
10753.31,8.119579
10755.24,8.142292
10757.16,8.156556
10759.09,8.169667
10761.02,8.168569
10762.95,8.145566
10764.88,8.170075
10766.81,8.214944
10768.74,8.213934
10770.66,8.225573
10772.59,8.252769
10774.52,8.247602
10776.45,8.242621
10778.38,8.280062
10780.31,8.285114
10782.23,8.262682
10784.16,8.317142
10786.09,8.355515
10788.02,8.34532
10789.95,8.328283
10791.88,8.307389
10793.81,8.350444
10795.73,8.402086
10797.66,8.413023
10799.59,8.422442
10801.52,8.467099
10803.45,8.439536
10805.38,8.401525
10807.3,8.458021
10809.23,8.52494
10811.16,8.560161
10813.09,8.548248
10815.02,8.54491
10816.95,8.574913
10818.88,8.604421
10820.8,8.584438
10822.73,8.614698
10824.66,8.62079
10826.59,8.63056
10828.52,8.648129
10830.45,8.63015
10832.38,8.670847
10834.3,8.711016
10836.23,8.737906
10838.16,8.757854
10840.09,8.713692
10842.02,8.776563
10843.95,8.808708
10845.88,8.802226
10847.8,8.821787
10849.73,8.84325
10851.66,8.87824
10853.59,8.896977
10855.52,8.901076
10857.45,8.89933
10859.38,8.902055
10861.3,8.920316
10863.23,8.929108
10865.16,8.974667
10867.09,9.029158
10869.02,9.042872
10870.95,9.076593
10872.87,9.081062
10874.8,9.054768
10876.73,9.104901
10878.66,9.147741
10880.59,9.152919
10882.52,9.120101
10884.45,9.117041
10886.37,9.184361
10888.3,9.237595
10890.23,9.254368
10892.16,9.293158
10894.09,9.292411
10896.02,9.254751
10897.94,9.249827
10899.87,9.308411
10901.8,9.290985
10903.73,9.24643
10905.66,9.25496
10907.59,9.321057
10909.52,9.330872
10911.44,9.317372
10913.37,9.394787
10915.3,9.423267
10917.23,9.381456
10919.16,9.405379
10921.09,9.388795
10923.01,9.411255
10924.94,9.422556
10926.87,9.385883
10928.8,9.417836
10930.73,9.448098
10932.66,9.48667
10934.59,9.534945
10936.51,9.583007
10938.44,9.570419
10940.37,9.535096
10942.3,9.530523
10944.23,9.58054
10946.16,9.548243
10948.09,9.545403
10950.01,9.612432
10951.94,9.61412
10953.87,9.617119
10955.8,9.627845
10957.73,9.654722
10959.66,9.64721
10961.58,9.667392
10963.51,9.726485
10965.44,9.747784
10967.37,9.702318
10969.3,9.75831
10971.23,9.813325
10973.16,9.793253
10975.08,9.752772
10977.01,9.746725
10978.94,9.772716
10980.87,9.839986
10982.8,9.851035
10984.73,9.815827
10986.66,9.814343
10988.58,9.801828
10990.51,9.882785
10992.44,9.895845
10994.37,9.870995
10996.3,9.882262
10998.23,9.828065
11000.16,9.831492
11002.08,9.892046
11004.01,9.915762
11005.94,9.902221
11007.87,9.921898
11009.8,9.972219
11011.73,9.987432
11013.65,10.00259
11015.58,10.00481
11017.51,9.978916
11019.44,9.958221
11021.37,9.946363
11023.3,9.97677
11025.23,9.968424
11027.15,9.987874
11029.08,10.00521
11031.01,10.0187
11032.94,10.02429
11034.87,9.993003
11036.8,10.00222
11038.72,10.03576
11040.65,10.05633
11042.58,10.08953
11044.51,10.06065
11046.44,10.03615
11048.37,10.01162
11050.3,10.00308
11052.22,10.01891
11054.15,10.03662
11056.08,10.05792
11058.01,10.09248
11059.94,10.1088
11061.87,10.14449
11063.79,10.12765
11065.72,10.06431
11067.65,10.05535
11069.58,10.16946
11071.51,10.18675
11073.44,10.14013
11075.37,10.1366
11077.29,10.15587
11079.22,10.18759
11081.15,10.17627
11083.08,10.10002
11085.01,10.07815
11086.94,10.09763
11088.87,10.16301
11090.79,10.16613
11092.72,10.08124
11094.65,10.06444
11096.58,10.12051
11098.51,10.14502
11100.44,10.16697
11102.37,10.20959
11104.29,10.18575
11106.22,10.17069
11108.15,10.20388
11110.08,10.16787
11112.01,10.12434
11113.94,10.11948
11115.87,10.22855
11117.79,10.20737
11119.72,10.1565
11121.65,10.18382
11123.58,10.22054
11125.51,10.188
11127.44,10.23672
11129.36,10.2492
11131.29,10.17278
11133.22,10.22774
11135.15,10.26773
11137.08,10.19888
11139.01,10.12855
11140.94,10.119
11142.86,10.19765
11144.79,10.27949
11146.72,10.22279
11148.65,10.21118
11150.58,10.26281
11152.51,10.24472
11154.43,10.2796
11156.36,10.26525
11158.29,10.22883
11160.22,10.25141
11162.15,10.25014
11164.08,10.26237
11166.01,10.23399
11167.93,10.21811
11169.86,10.29021
11171.79,10.26576
11173.72,10.25782
11175.65,10.25538
11177.58,10.28501
11179.5,10.30696
11181.43,10.26654
11183.36,10.31117
11185.29,10.30265
11187.22,10.29311
11189.15,10.30471
11191.08,10.32985
11193.0,10.37976
11194.93,10.31676
11196.86,10.35399
11198.79,10.42702
11200.72,10.29257
11202.65,10.25229
11204.58,10.35058
11206.5,10.38288
11208.43,10.44168
11210.36,10.43644
11212.29,10.4379
11214.22,10.42974
11216.15,10.38999
11218.08,10.42023
11220.0,10.42566
11221.93,10.44603
11223.86,10.46271
11225.79,10.41749
11227.72,10.43023
11229.65,10.47594
11231.58,10.49371
11233.5,10.45431
11235.43,10.47635
11237.36,10.48605
11239.29,10.41809
11241.22,10.46245
11243.15,10.4675
11245.07,10.4711
11247.0,10.49719
11248.93,10.52933
11250.86,10.57129
11252.79,10.61313
11254.72,10.57615
11256.65,10.57239
11258.57,10.50855
11260.5,10.53147
11262.43,10.54793
11264.36,10.48755
11266.29,10.52073
11268.22,10.56543
11270.14,10.53983
11272.07,10.52471
11274.0,10.52886
11275.93,10.56534
11277.86,10.62428
11279.79,10.60341
11281.72,10.63198
11283.64,10.5925
11285.57,10.51807
11287.5,10.50902
11289.43,10.58081
11291.36,10.55014
11293.29,10.52736
11295.21,10.50527
11297.14,10.51671
11299.07,10.56305
11301.0,10.6319
11302.93,10.62261
11304.86,10.61094
11306.79,10.64476
11308.71,10.6118
11310.64,10.61854
11312.57,10.63388
11314.5,10.58157
11316.43,10.62204
11318.36,10.58683
11320.29,10.54857
11322.21,10.65843
11324.14,10.64913
11326.07,10.61518
11328.0,10.67016
11329.93,10.6956
11331.86,10.64998
11333.79,10.65912
11335.71,10.67783
11337.64,10.63706
11339.57,10.58047
11341.5,10.52282
11343.43,10.64428
11345.36,10.7231
11347.28,10.76725
11349.21,10.72973
11351.14,10.71635
11353.07,10.72238
11355.0,10.71697
11356.93,10.68657
11358.86,10.66474
11360.78,10.68092
11362.71,10.71197
11364.64,10.73948
11366.57,10.74375
11368.5,10.64696
11370.43,10.64856
11372.36,10.66924
11374.28,10.62905
11376.21,10.68995
11378.14,10.73133
11380.07,10.76655
11382.0,10.77029
11383.93,10.7466
11385.85,10.70751
11387.78,10.64458
11389.71,10.64928
11391.64,10.71425
11393.57,10.79413
11395.5,10.85372
11397.43,10.80809
11399.35,10.78294
11401.28,10.6938
11403.21,10.71759
11405.14,10.77259
11407.07,10.85913
11409.0,10.89664
11410.92,10.83204
11412.85,10.83271
11414.78,10.79187
11416.71,10.7474
11418.64,10.77606
11420.57,10.83306
11422.5,10.83122
11424.42,10.83043
11426.35,10.74372
11428.28,10.76826
11430.21,10.85484
11432.14,10.81784
11434.07,10.80404
11436.0,10.86902
11437.92,10.81806
11439.85,10.80536
11441.78,10.76748
11443.71,10.7535
11445.64,10.74154
11447.57,10.70375
11449.5,10.7582
11451.42,10.91017
11453.35,10.89799
11455.28,10.83656
11457.21,10.84904
11459.14,10.84756
11461.07,10.88333
11462.99,10.85398
11464.92,10.81187
11466.85,10.81378
11468.78,10.84785
11470.71,10.91828
11472.64,10.88494
11474.57,10.85379
11476.49,10.89503
11478.42,10.98137
11480.35,10.96522
11482.28,10.91403
11484.21,10.81323
11486.14,10.71952
11488.07,10.74445
11489.99,10.85545
11491.92,10.90663
11493.85,10.92484
11495.78,10.89133
11497.71,10.92649
11499.64,10.97005
11501.56,10.98497
11503.49,10.92659
11505.42,10.84505
11507.35,10.86371
11509.28,10.84586
11511.21,10.84304
11513.14,10.90541
11515.06,10.92677
11516.99,10.94236
11518.92,10.94734
11520.85,10.8693
11522.78,10.81849
11524.71,10.88916
11526.63,10.955
11528.56,10.95964
11530.49,10.9385
11532.42,10.87537
11534.35,10.93401
11536.28,10.91039
11538.21,10.87179
11540.13,10.89532
11542.06,10.92813
11543.99,10.95598
11545.92,10.97589
11547.85,10.99347
11549.78,10.96188
11551.71,10.87165
11553.63,10.83947
11555.56,10.90866
11557.49,10.99367
11559.42,11.03452
11561.35,10.90365
11563.28,10.82273
11565.21,10.79852
11567.13,10.90223
11569.06,10.9825
11570.99,11.02546
11572.92,10.95582
11574.85,10.8165
11576.78,10.90418
11578.7,10.99055
11580.63,10.98407
11582.56,10.9445
11584.49,10.94429
11586.42,10.9315
11588.35,11.00153
11590.28,10.91497
11592.2,10.83238
11594.13,10.88525
11596.06,10.90963
11597.99,10.91724
11599.92,10.95897
11601.85,10.98347
11603.78,10.90246
11605.7,10.84586
11607.63,10.85193
11609.56,11.01858
11611.49,11.08867
11613.42,10.92
11615.35,10.77892
11617.27,10.84818
11619.2,10.93237
11621.13,10.96486
11623.06,11.07753
11624.99,11.11912
11626.92,11.07483
11628.85,10.95223
11630.77,10.90072
11632.7,11.02249
11634.63,11.06833
11636.56,10.95449
11638.49,10.88672
11640.42,10.98886
11642.34,10.94771
11644.27,10.90741
11646.2,10.96397
11648.13,11.02429
11650.06,10.97711
11651.99,10.96432
11653.92,11.01837
11655.84,11.02225
11657.77,11.04937
11659.7,11.12089
11661.63,10.9712
11663.56,10.8223
11665.49,10.8522
11667.42,10.90545
11669.34,11.04731
11671.27,11.12697
11673.2,11.10067
11675.13,11.09994
11677.06,11.07668
11678.99,11.00641
11680.92,10.98385
11682.84,11.02888
11684.77,11.02274
11686.7,10.91342
11688.63,10.99955
11690.56,11.05104
11692.49,11.02012
11694.41,11.13768
11696.34,11.14742
11698.27,10.97396
11700.2,11.02377
11702.13,10.9916
11704.06,11.00822
11705.99,11.10966
11707.91,10.98966
11709.84,10.8921
11711.77,10.9788
11713.7,10.98373
11715.63,10.94962
11717.56,11.04768
11719.48,11.07433
11721.41,11.02402
11723.34,11.09859
11725.27,11.1542
11727.2,11.0126
11729.13,10.99297
11731.06,11.13905
11732.98,11.03974
11734.91,10.94427
11736.84,10.93876
11738.77,10.9943
11740.7,11.01429
11742.63,11.04174
11744.56,11.13372
11746.48,11.03373
11748.41,11.07121
11750.34,11.11398
11752.27,11.04105
11754.2,11.0175
11756.13,11.0832
11758.05,10.94908
11759.98,10.86207
11761.91,11.04124
11763.84,11.16675
11765.77,11.09432
11767.7,11.00468
11769.63,10.91621
11771.55,10.95793
11773.48,11.0109
11775.41,10.97088
11777.34,11.02193
11779.27,11.00648
11781.2,10.94933
11783.13,10.80672
11785.05,10.86138
11786.98,10.93367
11788.91,11.03441
11790.84,11.10361
11792.77,11.1087
11794.7,10.97138
11796.63,10.93458
11798.55,11.03286
11800.48,11.00044
11802.41,10.98494
11804.34,10.92729
11806.27,10.9359
11808.2,11.02404
11810.12,11.04254
11812.05,11.00316
11813.98,10.93615
11815.91,11.01288
11817.84,11.11389
11819.77,11.08631
11821.7,11.03164
11823.62,10.98649
11825.55,10.94027
11827.48,10.99443
11829.41,10.98306
11831.34,11.07237
11833.27,11.2159
11835.19,11.16328
11837.12,10.93042
11839.05,10.88085
11840.98,11.00731
11842.91,11.14161
11844.84,11.0469
11846.77,10.79645
11848.69,10.55101
11850.62,10.75138
11852.55,11.03357
11854.48,11.06638
11856.41,11.02305
11858.34,11.03003
11860.27,11.07262
11862.19,11.02671
11864.12,11.05046
11866.05,11.0394
11867.98,10.98957
11869.91,10.81521
11871.84,10.72937
11873.76,10.88625
11875.69,10.97286
11877.62,11.02974
11879.55,10.96112
11881.48,10.98469
11883.41,11.04956
11885.34,10.97974
11887.26,10.98743
11889.19,11.13501
11891.12,11.06685
11893.05,10.85442
11894.98,10.97046
11896.91,10.98141
11898.83,10.87026
11900.76,10.97182
11902.69,11.03246
11904.62,11.10313
11906.55,11.14258
11908.48,11.10477
11910.41,10.95705
11912.33,10.86999
11914.26,10.79458
11916.19,10.86013
11918.12,10.94623
11920.05,11.07985
11921.98,11.13131
11923.91,11.0938
11925.83,11.14905
11927.76,11.2131
11929.69,11.26222
11931.62,11.151
11933.55,11.04573
11935.48,11.01011
11937.41,10.91192
11939.33,10.8948
11941.26,11.00892
11943.19,11.04729
11945.12,11.08325
11947.05,11.10448
11948.98,11.12124
11950.9,11.07853
11952.83,11.09722
11954.76,11.04386
11956.69,10.91291
11958.62,11.00073
11960.55,11.14964
11962.48,11.03097
11964.4,11.04472
11966.33,11.00412
11968.26,11.00874
11970.19,11.04462
11972.12,10.85244
11974.05,10.82951
11975.98,10.8176
11977.9,10.89586
11979.83,10.9557
11981.76,10.92889
11983.69,10.94139
11985.62,11.0526
11987.55,11.18735
11989.47,11.13627
11991.4,11.04132
11993.33,10.93747
11995.26,11.00496
11997.19,11.08309
11999.12,11.06562
