Wavenumber,Intensity
3999.706,1.738379
4001.634,1.741566
4003.563,1.742114
4005.491,1.739697
4007.42,1.743087
4009.348,1.743494
4011.277,1.740773
4013.205,1.740139
4015.134,1.736559
4017.062,1.736152
4018.991,1.736129
4020.919,1.73559
4022.848,1.732995
4024.776,1.733683
4026.705,1.73818
4028.633,1.740485
4030.562,1.738456
4032.49,1.738199
4034.419,1.741295
4036.347,1.743698
4038.276,1.739269
4040.204,1.737753
4042.133,1.741112
4044.061,1.741543
4045.99,1.741097
4047.918,1.742319
4049.847,1.742484
4051.775,1.745544
4053.704,1.746438
4055.632,1.745621
4057.561,1.745918
4059.489,1.742039
4061.418,1.740934
4063.346,1.744343
4065.275,1.748767
4067.203,1.750769
4069.132,1.744932
4071.06,1.739798
4072.989,1.739455
4074.917,1.74382
4076.846,1.745835
4078.774,1.745236
4080.703,1.74977
4082.631,1.749114
4084.56,1.751031
4086.488,1.74896
4088.417,1.745925
4090.345,1.743392
4092.274,1.743378
4094.202,1.744124
4096.131,1.741306
4098.059,1.744941
4099.988,1.74836
4101.916,1.746653
4103.845,1.749231
4105.773,1.750194
4107.702,1.748925
4109.63,1.747365
4111.559,1.748511
4113.487,1.746698
4115.416,1.748813
4117.344,1.751771
4119.273,1.747728
4121.201,1.748696
4123.13,1.752501
4125.058,1.753886
4126.987,1.754445
4128.915,1.753113
4130.844,1.752578
4132.772,1.750905
4134.701,1.751761
4136.629,1.754239
4138.558,1.755403
4140.486,1.755475
4142.415,1.753767
4144.343,1.752654
4146.271,1.755583
4148.2,1.754856
4150.129,1.754033
4152.057,1.754212
4153.986,1.755255
4155.914,1.755056
4157.843,1.754305
4159.771,1.75418
4161.7,1.755775
4163.628,1.753957
4165.557,1.754231
4167.485,1.757062
4169.414,1.758235
4171.342,1.757774
4173.271,1.75703
4175.199,1.75975
4177.127,1.763972
4179.056,1.766997
4180.985,1.76595
4182.913,1.767173
4184.842,1.7684
4186.77,1.765963
4188.699,1.765361
4190.627,1.769127
4192.556,1.772237
4194.484,1.771831
4196.413,1.772391
4198.341,1.777491
4200.27,1.781131
4202.198,1.780763
4204.126,1.779081
4206.055,1.779829
4207.983,1.783025
4209.912,1.788148
4211.841,1.789986
4213.769,1.791235
4215.698,1.793733
4217.626,1.792887
4219.555,1.795721
4221.483,1.798786
4223.412,1.799892
4225.34,1.79984
4227.269,1.801441
4229.197,1.80409
4231.125,1.804492
4233.054,1.806031
4234.982,1.8053
4236.911,1.806664
4238.84,1.807877
4240.768,1.807356
4242.697,1.806351
4244.625,1.803689
4246.554,1.798765
4248.482,1.798738
4250.411,1.801838
4252.339,1.802457
4254.268,1.801467
4256.196,1.804629
4258.125,1.80639
4260.053,1.809965
4261.981,1.812883
4263.91,1.816508
4265.838,1.819442
4267.767,1.820954
4269.696,1.822531
4271.624,1.820791
4273.553,1.819802
4275.481,1.824278
4277.41,1.824628
4279.338,1.825346
4281.267,1.824351
4283.195,1.824359
4285.124,1.826646
4287.052,1.828812
4288.98,1.831302
4290.909,1.834623
4292.837,1.833763
4294.766,1.834212
4296.694,1.834656
4298.623,1.832703
4300.552,1.832465
4302.48,1.833352
4304.409,1.833272
4306.337,1.830531
4308.266,1.825654
4310.194,1.823207
4312.123,1.824071
4314.051,1.820582
4315.979,1.815808
4317.908,1.817481
4319.836,1.812231
4321.765,1.810897
4323.693,1.811608
4325.622,1.811132
4327.551,1.810695
4329.479,1.815082
4331.408,1.819322
4333.336,1.817258
4335.265,1.816941
4337.193,1.819151
4339.122,1.823536
4341.05,1.825
4342.979,1.823567
4344.907,1.825036
4346.835,1.829624
4348.764,1.8337
4350.692,1.834774
4352.621,1.833001
4354.549,1.838029
4356.478,1.838603
4358.407,1.840536
4360.335,1.843047
4362.264,1.842899
4364.192,1.845915
4366.121,1.844889
4368.049,1.845309
4369.978,1.846014
4371.906,1.848247
4373.834,1.850832
4375.763,1.853281
4377.691,1.857625
4379.62,1.859873
4381.548,1.862839
4383.477,1.865533
4385.405,1.866278
4387.334,1.868734
4389.263,1.87297
4391.191,1.877368
4393.12,1.882598
4395.048,1.888584
4396.977,1.893049
4398.905,1.896647
4400.833,1.903447
4402.762,1.911876
4404.69,1.919023
4406.619,1.930942
4408.547,1.939306
4410.476,1.946893
4412.404,1.957893
4414.333,1.969017
4416.262,1.979301
4418.19,1.989011
4420.119,1.993954
4422.047,2.004252
4423.976,2.018574
4425.904,2.032888
4427.833,2.038504
4429.761,2.043121
4431.689,2.0478
4433.618,2.054926
4435.546,2.065434
4437.475,2.075756
4439.403,2.084019
4441.332,2.095978
4443.26,2.108366
4445.189,2.114536
4447.117,2.122185
4449.046,2.137306
4450.975,2.152735
4452.903,2.164653
4454.832,2.174986
4456.76,2.190675
4458.688,2.200475
4460.617,2.208926
4462.545,2.220333
4464.474,2.22654
4466.402,2.235016
4468.331,2.243672
4470.259,2.250523
4472.188,2.257258
4474.116,2.261977
4476.045,2.269942
4477.974,2.28071
4479.902,2.294083
4481.831,2.308244
4483.759,2.321844
4485.688,2.331497
4487.616,2.342887
4489.544,2.357269
4491.473,2.374849
4493.401,2.387393
4495.33,2.399377
4497.258,2.411625
4499.187,2.42326
4501.115,2.437756
4503.044,2.450754
4504.972,2.462764
4506.901,2.474505
4508.83,2.488545
4510.758,2.503422
4512.687,2.517324
4514.615,2.526714
4516.543,2.535696
4518.472,2.548792
4520.4,2.562895
4522.329,2.574851
4524.257,2.586241
4526.186,2.600348
4528.114,2.614017
4530.043,2.6264
4531.971,2.638053
4533.9,2.648762
4535.828,2.661327
4537.757,2.676508
4539.686,2.690543
4541.614,2.702387
4543.542,2.71875
4545.471,2.731432
4547.399,2.744383
4549.328,2.757747
4551.256,2.769544
4553.185,2.783341
4555.113,2.798333
4557.042,2.813845
4558.97,2.828631
4560.899,2.84428
4562.827,2.859964
4564.756,2.877011
4566.685,2.88475
4568.613,2.89395
4570.542,2.905984
4572.47,2.918476
4574.398,2.931482
4576.327,2.942507
4578.255,2.950737
4580.184,2.958021
4582.112,2.966536
4584.041,2.973979
4585.969,2.980279
4587.898,2.986213
4589.826,2.993108
4591.755,3.00038
4593.683,3.005517
4595.612,3.003519
4597.54,3.006394
4599.469,3.011906
4601.397,3.015512
4603.326,3.020237
4605.254,3.028353
4607.183,3.033641
4609.111,3.039262
4611.04,3.044064
4612.968,3.048895
4614.897,3.057028
4616.825,3.063845
4618.754,3.071306
4620.682,3.080058
4622.611,3.091618
4624.539,3.096599
4626.468,3.099603
4628.396,3.10626
4630.325,3.109293
4632.253,3.112505
4634.182,3.113326
4636.11,3.113907
4638.039,3.116837
4639.967,3.119856
4641.896,3.123016
4643.824,3.122488
4645.753,3.122946
4647.681,3.123686
4649.61,3.123009
4651.538,3.118813
4653.467,3.113961
4655.396,3.105334
4657.324,3.095896
4659.252,3.085733
4661.181,3.070455
4663.109,3.056951
4665.038,3.046539
4666.966,3.043188
4668.895,3.049689
4670.823,3.058735
4672.752,3.06831
4674.68,3.085242
4676.609,3.108653
4678.537,3.123364
4680.466,3.136618
4682.394,3.150062
4684.323,3.160293
4686.251,3.165459
4688.18,3.171279
4690.108,3.177477
4692.037,3.179232
4693.965,3.178512
4695.894,3.178579
4697.822,3.18175
4699.751,3.180099
4701.679,3.174755
4703.608,3.172385
4705.536,3.172302
4707.465,3.166474
4709.393,3.157053
4711.322,3.150903
4713.25,3.139668
4715.179,3.129287
4717.107,3.125182
4719.036,3.117733
4720.964,3.113156
4722.893,3.111951
4724.821,3.108057
4726.75,3.103314
4728.678,3.099525
4730.606,3.097606
4732.535,3.097623
4734.464,3.099051
4736.392,3.096758
4738.321,3.098228
4740.249,3.099852
4742.178,3.097407
4744.106,3.093663
4746.035,3.092687
4747.963,3.089223
4749.892,3.088886
4751.82,3.083576
4753.749,3.076266
4755.677,3.072731
4757.605,3.067372
4759.534,3.059181
4761.463,3.055108
4763.391,3.048856
4765.32,3.042418
4767.248,3.033855
4769.177,3.02235
4771.105,3.00822
4773.034,2.998133
4774.962,2.987235
4776.891,2.97968
4778.819,2.974283
4780.748,2.971538
4782.676,2.966994
4784.604,2.963455
4786.533,2.962966
4788.462,2.962219
4790.39,2.958854
4792.319,2.955732
4794.247,2.950092
4796.176,2.948083
4798.104,2.94817
4800.033,2.941555
4801.961,2.93523
4803.89,2.929087
4805.818,2.920583
4807.747,2.914256
4809.675,2.908222
4811.604,2.900255
4813.532,2.889264
4815.46,2.879297
4817.389,2.869073
4819.317,2.862222
4821.246,2.854439
4823.175,2.844713
4825.103,2.840867
4827.032,2.838756
4828.96,2.828103
4830.889,2.820705
4832.817,2.813419
4834.746,2.807148
4836.674,2.800057
4838.603,2.793241
4840.531,2.782025
4842.459,2.769106
4844.388,2.758496
4846.316,2.75097
4848.245,2.740683
4850.174,2.727046
4852.102,2.714943
4854.031,2.70758
4855.959,2.69877
4857.888,2.686314
4859.816,2.679208
4861.745,2.674041
4863.673,2.668612
4865.602,2.664932
4867.53,2.661901
4869.458,2.661855
4871.387,2.663331
4873.315,2.664614
4875.244,2.667656
4877.172,2.670321
4879.101,2.673253
4881.03,2.675502
4882.958,2.680513
4884.887,2.682943
4886.815,2.687454
4888.744,2.694073
4890.672,2.700196
4892.601,2.703879
4894.529,2.705506
4896.458,2.706447
4898.386,2.707842
4900.314,2.711613
4902.243,2.71528
4904.171,2.717917
4906.1,2.721143
4908.028,2.723739
4909.957,2.725212
4911.886,2.727077
4913.814,2.730046
4915.743,2.730263
4917.671,2.72799
4919.6,2.727452
4921.528,2.726872
4923.457,2.727834
4925.385,2.728781
4927.313,2.725037
4929.242,2.725065
4931.17,2.725862
4933.099,2.724081
4935.027,2.72431
4936.956,2.724877
4938.885,2.719982
4940.813,2.713765
4942.742,2.711077
4944.67,2.707506
4946.599,2.701702
4948.527,2.692117
4950.456,2.678054
4952.384,2.664474
4954.313,2.648151
4956.241,2.623853
4958.169,2.600509
4960.098,2.585234
4962.026,2.575009
4963.955,2.568591
4965.883,2.569162
4967.812,2.572886
4969.74,2.584138
4971.669,2.595108
4973.598,2.59782
4975.526,2.603144
4977.455,2.606121
4979.383,2.612755
4981.312,2.622268
4983.24,2.629968
4985.168,2.636696
4987.097,2.642912
4989.025,2.654727
4990.954,2.665496
4992.882,2.674125
4994.811,2.683442
4996.739,2.696748
4998.668,2.708736
5000.597,2.721636
5002.525,2.734309
5004.454,2.742042
5006.382,2.748056
5008.311,2.754903
5010.239,2.75658
5012.167,2.756016
5014.096,2.756737
5016.024,2.759715
5017.953,2.760081
5019.881,2.762194
5021.81,2.764356
5023.738,2.767649
5025.667,2.773907
5027.596,2.780195
5029.524,2.784023
5031.452,2.786299
5033.381,2.788826
5035.31,2.793224
5037.238,2.794849
5039.167,2.796018
5041.095,2.79743
5043.023,2.796859
5044.952,2.797344
5046.88,2.797859
5048.809,2.798322
5050.737,2.795136
5052.666,2.789032
5054.595,2.782726
5056.523,2.777703
5058.451,2.7708
5060.38,2.766278
5062.309,2.764603
5064.237,2.764787
5066.166,2.765818
5068.094,2.764955
5070.022,2.764999
5071.951,2.765164
5073.879,2.766412
5075.808,2.766306
5077.736,2.765875
5079.665,2.766108
5081.593,2.762656
5083.522,2.759908
5085.45,2.756175
5087.379,2.753554
5089.308,2.752113
5091.236,2.748634
5093.165,2.748034
5095.093,2.74777
5097.021,2.74587
5098.95,2.743612
5100.878,2.742438
5102.807,2.745506
5104.735,2.750573
5106.664,2.753414
5108.592,2.755222
5110.521,2.759565
5112.449,2.762153
5114.378,2.764712
5116.307,2.768114
5118.235,2.770559
5120.163,2.77373
5122.092,2.775492
5124.021,2.779952
5125.949,2.783312
5127.877,2.787371
5129.806,2.787571
5131.734,2.79206
5133.663,2.795359
5135.591,2.79101
5137.52,2.786895
5139.448,2.784774
5141.377,2.782297
5143.305,2.779927
5145.234,2.77673
5147.162,2.771407
5149.091,2.767276
5151.02,2.764285
5152.948,2.757401
5154.876,2.755005
5156.805,2.755836
5158.733,2.754117
5160.662,2.753039
5162.59,2.753123
5164.519,2.753577
5166.447,2.755411
5168.376,2.75646
5170.304,2.756773
5172.233,2.757347
5174.161,2.754676
5176.09,2.751799
5178.019,2.749755
5179.947,2.748647
5181.875,2.746553
5183.804,2.74582
5185.732,2.748602
5187.661,2.746466
5189.589,2.743902
5191.518,2.743231
5193.446,2.748518
5195.375,2.752125
5197.303,2.757766
5199.232,2.75341
5201.16,2.753966
5203.089,2.75603
5205.018,2.761048
5206.946,2.766806
5208.874,2.763238
5210.803,2.757838
5212.731,2.751918
5214.66,2.752512
5216.588,2.75533
5218.517,2.762304
5220.445,2.762287
5222.374,2.760323
5224.302,2.767889
5226.231,2.771463
5228.159,2.767259
5230.088,2.768984
5232.016,2.772099
5233.945,2.770056
5235.873,2.772448
5237.802,2.774865
5239.73,2.77964
5241.659,2.782
5243.587,2.790119
5245.516,2.795393
5247.444,2.798813
5249.373,2.79951
5251.301,2.795944
5253.229,2.800017
5255.158,2.801739
5257.087,2.798207
5259.015,2.797905
5260.944,2.806679
5262.872,2.810109
5264.801,2.811478
5266.729,2.806103
5268.658,2.799532
5270.586,2.798629
5272.515,2.79727
5274.443,2.796745
5276.372,2.79517
5278.3,2.797572
5280.229,2.801858
5282.157,2.803388
5284.086,2.805079
5286.014,2.805
5287.943,2.800385
5289.871,2.805516
5291.8,2.803203
5293.729,2.797368
5295.657,2.794433
5297.585,2.794126
5299.514,2.790283
5301.442,2.781267
5303.371,2.776675
5305.299,2.774848
5307.228,2.775246
5309.156,2.773006
5311.085,2.772586
5313.013,2.779736
5314.941,2.792131
5316.87,2.806877
5318.799,2.817342
5320.727,2.825234
5322.656,2.832778
5324.584,2.840208
5326.513,2.848521
5328.441,2.852943
5330.37,2.845782
5332.298,2.844766
5334.227,2.83802
5336.155,2.833238
5338.084,2.832356
5340.012,2.823232
5341.94,2.805656
5343.869,2.799038
5345.798,2.790741
5347.726,2.772909
5349.655,2.758117
5351.583,2.749286
5353.512,2.746905
5355.44,2.731484
5357.369,2.714579
5359.297,2.704432
5361.226,2.700121
5363.154,2.696842
5365.083,2.687797
5367.011,2.677021
5368.939,2.667273
5370.868,2.659476
5372.797,2.652238
5374.725,2.648346
5376.654,2.645682
5378.582,2.641862
5380.511,2.632335
5382.439,2.631558
5384.368,2.627683
5386.296,2.6258
5388.225,2.617507
5390.153,2.608381
5392.082,2.599792
5394.01,2.601239
5395.938,2.591165
5397.867,2.581604
5399.796,2.570857
5401.724,2.562657
5403.652,2.555063
5405.581,2.545293
5407.51,2.531713
5409.438,2.522252
5411.367,2.512037
5413.295,2.498413
5415.224,2.481846
5417.152,2.461171
5419.081,2.44859
5421.009,2.443515
5422.938,2.442155
5424.866,2.439014
5426.795,2.437265
5428.723,2.435781
5430.651,2.434273
5432.58,2.425175
5434.509,2.425439
5436.437,2.422775
5438.366,2.414927
5440.294,2.416599
5442.223,2.420732
5444.151,2.414078
5446.08,2.412791
5448.008,2.410068
5449.937,2.405776
5451.865,2.400831
5453.793,2.397945
5455.722,2.397299
5457.65,2.394615
5459.579,2.392706
5461.508,2.394895
5463.436,2.389464
5465.365,2.383036
5467.293,2.382214
5469.222,2.382156
5471.15,2.374417
5473.079,2.367352
5475.007,2.367802
5476.936,2.362286
5478.864,2.349106
5480.792,2.342277
5482.721,2.335963
5484.649,2.331938
5486.578,2.326641
5488.507,2.325094
5490.435,2.321929
5492.363,2.325325
5494.292,2.327011
5496.221,2.321323
5498.149,2.322019
5500.078,2.324818
5502.006,2.327518
5503.935,2.331527
5505.863,2.333676
5507.792,2.337143
5509.72,2.338633
5511.648,2.339113
5513.577,2.340286
5515.505,2.343314
5517.434,2.34635
5519.362,2.348844
5521.291,2.352671
5523.22,2.352157
5525.148,2.348
5527.077,2.345267
5529.005,2.345356
5530.934,2.346676
5532.862,2.347092
5534.791,2.345352
5536.719,2.343518
5538.647,2.340518
5540.576,2.3399
5542.504,2.335154
5544.433,2.331136
5546.361,2.33147
5548.29,2.334183
5550.219,2.330462
5552.147,2.331574
5554.076,2.336462
5556.004,2.335148
5557.933,2.335717
5559.861,2.339296
5561.79,2.343713
5563.718,2.350221
5565.646,2.357229
5567.575,2.36261
5569.503,2.369587
5571.432,2.377776
5573.36,2.384403
5575.289,2.392565
5577.218,2.404289
5579.146,2.416393
5581.074,2.425503
5583.003,2.430685
5584.932,2.439196
5586.86,2.444482
5588.789,2.445143
5590.717,2.445788
5592.646,2.441866
5594.574,2.438106
5596.502,2.43608
5598.431,2.43055
5600.359,2.424884
5602.288,2.416339
5604.216,2.40556
5606.145,2.396963
5608.073,2.3891
5610.002,2.378515
5611.931,2.368757
5613.859,2.363214
5615.788,2.357237
5617.716,2.345162
5619.645,2.329955
5621.573,2.323058
5623.501,2.321482
5625.43,2.313334
5627.358,2.303048
5629.287,2.296659
5631.215,2.289697
5633.144,2.281399
5635.072,2.272221
5637.001,2.261454
5638.93,2.250855
5640.858,2.241051
5642.786,2.224517
5644.715,2.207499
5646.644,2.190737
5648.572,2.167545
5650.5,2.144409
5652.429,2.120151
5654.357,2.095785
5656.286,2.07859
5658.214,2.062829
5660.143,2.05002
5662.071,2.045446
5664.0,2.044803
5665.929,2.047562
5667.857,2.054715
5669.785,2.061159
5671.714,2.069338
5673.643,2.080519
5675.571,2.092432
5677.5,2.107056
5679.428,2.123213
5681.356,2.133439
5683.285,2.138353
5685.213,2.145159
5687.142,2.156805
5689.07,2.166011
5690.999,2.174662
5692.927,2.185652
5694.856,2.197725
5696.784,2.210426
5698.713,2.225176
5700.642,2.240089
5702.57,2.256504
5704.499,2.271608
5706.427,2.286016
5708.355,2.298769
5710.284,2.305576
5712.212,2.311085
5714.141,2.318025
5716.069,2.31445
5717.998,2.309738
5719.926,2.302855
5721.855,2.284537
5723.783,2.261333
5725.712,2.233145
5727.641,2.202607
5729.569,2.1777
5731.497,2.163232
5733.426,2.154469
5735.354,2.152356
5737.283,2.15224
5739.211,2.147779
5741.14,2.136524
5743.068,2.12385
5744.997,2.112252
5746.925,2.096344
5748.854,2.080077
5750.782,2.068559
5752.711,2.058325
5754.639,2.044571
5756.568,2.036612
5758.496,2.0288
5760.425,2.019522
5762.354,2.008166
5764.282,2.003306
5766.21,1.997792
5768.139,1.989145
5770.067,1.985833
5771.996,1.981712
5773.924,1.979947
5775.853,1.982359
5777.781,1.986654
5779.71,1.989816
5781.638,1.991726
5783.567,1.993842
5785.495,1.999087
5787.424,2.005522
5789.353,2.007366
5791.281,2.010655
5793.209,2.015425
5795.138,2.02034
5797.066,2.024244
5798.995,2.02834
5800.923,2.03265
5802.852,2.038644
5804.78,2.03998
5806.709,2.045779
5808.637,2.052925
5810.566,2.061426
5812.494,2.071892
5814.423,2.078142
5816.352,2.081481
5818.28,2.088016
5820.208,2.097703
5822.137,2.105545
5824.065,2.114644
5825.994,2.121104
5827.922,2.13238
5829.851,2.144383
5831.779,2.155992
5833.708,2.166511
5835.636,2.181241
5837.565,2.193839
5839.493,2.205357
5841.422,2.221034
5843.35,2.241809
5845.279,2.261768
5847.207,2.282451
5849.136,2.311139
5851.064,2.343423
5852.993,2.376079
5854.921,2.409578
5856.85,2.446198
5858.778,2.490704
5860.707,2.541306
5862.635,2.593257
5864.563,2.646946
5866.492,2.705234
5868.421,2.763289
5870.349,2.824008
5872.278,2.885956
5874.206,2.94644
5876.135,3.01066
5878.063,3.07658
5879.992,3.139004
5881.92,3.198431
5883.849,3.252525
5885.777,3.307412
5887.706,3.35778
5889.634,3.40583
5891.563,3.44971
5893.491,3.481079
5895.42,3.516132
5897.348,3.553044
5899.277,3.578621
5901.205,3.608075
5903.134,3.644097
5905.063,3.682552
5906.991,3.718918
5908.919,3.759499
5910.848,3.806599
5912.776,3.853016
5914.705,3.901943
5916.633,3.952251
5918.562,4.000579
5920.49,4.049154
5922.419,4.09946
5924.347,4.1512
5926.276,4.197935
5928.204,4.244996
5930.133,4.290044
5932.061,4.337103
5933.99,4.376225
5935.918,4.417906
5937.847,4.455845
5939.775,4.495194
5941.704,4.537077
5943.632,4.573585
5945.561,4.603463
5947.489,4.640399
5949.418,4.677696
5951.346,4.715057
5953.274,4.756515
5955.203,4.796041
5957.132,4.83718
5959.06,4.884528
5960.989,4.931261
5962.917,4.9821
5964.846,5.032911
5966.774,5.088932
5968.703,5.14284
5970.631,5.197394
5972.56,5.245982
5974.488,5.295887
5976.417,5.347458
5978.345,5.397311
5980.273,5.441486
5982.202,5.486684
5984.131,5.529554
5986.059,5.569716
5987.988,5.60948
5989.916,5.653949
5991.845,5.695797
5993.773,5.731951
5995.702,5.770276
5997.63,5.807457
5999.559,5.843524
6001.487,5.877527
6003.416,5.909738
6005.344,5.944193
6007.272,5.979548
6009.201,6.010961
6011.13,6.045589
6013.058,6.083246
6014.986,6.116238
6016.915,6.151593
6018.844,6.188064
6020.772,6.221784
6022.701,6.253094
6024.629,6.291242
6026.558,6.317314
6028.486,6.348166
6030.415,6.378306
6032.343,6.406583
6034.271,6.431662
6036.2,6.459637
6038.129,6.483894
6040.057,6.502512
6041.985,6.525441
6043.914,6.552588
6045.843,6.573436
6047.771,6.592756
6049.7,6.616022
6051.628,6.646413
6053.557,6.664711
6055.485,6.683706
6057.414,6.69913
6059.342,6.715617
6061.271,6.730523
6063.199,6.748447
6065.128,6.762083
6067.056,6.771509
6068.984,6.785676
6070.913,6.801714
6072.842,6.814247
6074.77,6.831439
6076.698,6.844673
6078.627,6.857801
6080.556,6.872086
6082.484,6.885252
6084.413,6.896874
6086.341,6.912314
6088.27,6.920784
6090.198,6.923562
6092.126,6.921031
6094.055,6.916584
6095.983,6.903524
6097.912,6.882035
6099.841,6.85233
6101.769,6.820984
6103.697,6.796866
6105.626,6.78694
6107.555,6.781425
6109.483,6.785595
6111.412,6.803372
6113.34,6.825242
6115.269,6.844312
6117.197,6.870119
6119.125,6.899348
6121.054,6.929093
6122.982,6.95251
6124.911,6.978073
6126.84,7.008725
6128.768,7.037321
6130.696,7.057162
6132.625,7.080326
6134.554,7.102416
6136.482,7.126669
6138.41,7.147547
6140.339,7.168033
6142.268,7.187854
6144.196,7.211254
6146.125,7.228862
6148.053,7.242979
6149.981,7.256034
6151.91,7.274755
6153.839,7.290018
6155.767,7.305254
6157.695,7.320686
6159.624,7.334525
6161.553,7.34828
6163.481,7.363994
6165.409,7.374166
6167.338,7.38835
6169.267,7.40252
6171.195,7.420789
6173.124,7.433508
6175.052,7.445431
6176.98,7.457973
6178.909,7.468132
6180.837,7.477521
6182.766,7.488595
6184.694,7.495914
6186.623,7.506194
6188.552,7.510616
6190.48,7.51752
6192.408,7.52201
6194.337,7.525363
6196.266,7.533572
6198.194,7.546178
6200.123,7.55296
6202.051,7.563322
6203.979,7.567339
6205.908,7.569964
6207.836,7.5761
6209.765,7.589307
6211.693,7.597538
6213.622,7.60544
6215.551,7.610725
6217.479,7.616302
6219.407,7.620626
6221.336,7.623755
6223.265,7.636885
6225.193,7.643919
6227.121,7.646311
6229.05,7.654823
6230.979,7.661252
6232.907,7.665214
6234.835,7.670321
6236.764,7.675754
6238.692,7.68124
6240.621,7.684109
6242.549,7.683354
6244.478,7.684683
6246.406,7.689581
6248.335,7.696382
6250.264,7.69252
6252.192,7.69304
6254.12,7.695726
6256.049,7.69507
6257.978,7.697064
6259.906,7.702444
6261.834,7.705799
6263.763,7.706708
6265.691,7.711555
6267.62,7.713068
6269.548,7.710306
6271.477,7.716407
6273.405,7.720851
6275.334,7.724703
6277.263,7.723311
6279.191,7.725368
6281.119,7.73072
6283.048,7.735373
6284.977,7.735137
6286.905,7.735366
6288.833,7.735989
6290.762,7.740167
6292.69,7.744068
6294.619,7.744112
6296.547,7.743283
6298.476,7.745479
6300.404,7.744851
6302.333,7.74909
6304.262,7.752646
6306.19,7.758584
6308.118,7.756316
6310.047,7.756051
6311.976,7.756996
6313.904,7.759729
6315.832,7.759336
6317.761,7.759519
6319.689,7.754612
6321.618,7.748807
6323.546,7.745321
6325.475,7.742401
6327.403,7.738088
6329.332,7.735209
6331.26,7.731924
6333.189,7.72515
6335.117,7.720511
6337.046,7.716916
6338.975,7.707329
6340.903,7.705148
6342.831,7.696844
6344.76,7.691791
6346.688,7.687219
6348.617,7.679816
6350.545,7.667483
6352.474,7.659581
6354.402,7.652781
6356.331,7.649007
6358.259,7.640248
6360.188,7.632842
6362.116,7.624371
6364.045,7.61523
6365.974,7.597967
6367.902,7.581478
6369.83,7.568087
6371.759,7.55307
6373.688,7.53509
6375.616,7.51844
6377.544,7.50759
6379.473,7.504985
6381.401,7.498324
6383.33,7.493697
6385.258,7.487399
6387.187,7.482191
6389.115,7.480607
6391.044,7.479188
6392.973,7.473534
6394.901,7.46963
6396.829,7.463998
6398.758,7.452515
6400.687,7.435137
6402.615,7.421874
6404.543,7.406096
6406.472,7.387321
6408.4,7.364193
6410.329,7.34187
6412.257,7.323811
6414.186,7.305296
6416.114,7.288338
6418.043,7.274642
6419.971,7.26374
6421.9,7.260156
6423.828,7.25296
6425.757,7.245983
6427.686,7.23678
6429.614,7.231627
6431.542,7.226484
6433.471,7.216186
6435.399,7.20657
6437.328,7.193765
6439.256,7.173362
6441.185,7.152404
6443.113,7.12849
6445.042,7.107231
6446.97,7.08222
6448.898,7.058599
6450.827,7.031735
6452.756,7.003373
6454.685,6.975745
6456.613,6.946026
6458.541,6.909632
6460.47,6.871413
6462.398,6.823777
6464.327,6.770975
6466.255,6.7077
6468.184,6.633707
6470.112,6.556586
6472.041,6.472403
6473.969,6.386064
6475.897,6.309433
6477.826,6.240517
6479.755,6.187271
6481.684,6.158556
6483.612,6.150938
6485.54,6.157825
6487.469,6.172065
6489.397,6.192644
6491.326,6.22385
6493.254,6.259632
6495.183,6.291731
6497.111,6.321153
6499.04,6.352303
6500.968,6.381569
6502.896,6.410612
6504.825,6.435066
6506.754,6.462088
6508.682,6.485783
6510.61,6.507009
6512.539,6.523141
6514.468,6.541844
6516.396,6.555793
6518.325,6.56993
6520.253,6.583838
6522.182,6.598276
6524.11,6.611351
6526.039,6.625045
6527.967,6.633874
6529.896,6.645861
6531.824,6.663583
6533.753,6.677306
6535.681,6.681576
6537.609,6.688934
6539.538,6.694907
6541.467,6.707117
6543.396,6.717946
6545.324,6.726055
6547.252,6.729028
6549.181,6.738885
6551.109,6.747415
6553.038,6.75493
6554.966,6.759746
6556.895,6.767478
6558.823,6.778391
6560.752,6.780601
6562.68,6.786036
6564.608,6.796625
6566.537,6.809857
6568.466,6.823397
6570.394,6.832636
6572.323,6.847754
6574.251,6.858259
6576.18,6.861805
6578.108,6.872654
6580.037,6.88609
6581.965,6.888154
6583.894,6.887753
6585.822,6.892064
6587.751,6.898499
6589.679,6.900416
6591.607,6.899165
6593.536,6.900381
6595.465,6.904994
6597.393,6.906725
6599.321,6.90973
6601.25,6.914684
6603.179,6.917308
6605.107,6.915459
6607.036,6.912169
6608.964,6.913847
6610.893,6.918206
6612.821,6.91429
6614.75,6.914933
6616.678,6.913679
6618.606,6.911896
6620.535,6.911679
6622.464,6.907701
6624.392,6.901757
6626.32,6.902207
6628.249,6.900119
6630.178,6.893167
6632.106,6.886809
6634.035,6.882066
6635.963,6.879481
6637.892,6.875378
6639.82,6.871442
6641.749,6.868883
6643.677,6.857824
6645.605,6.852842
6647.534,6.849024
6649.463,6.842618
6651.391,6.833869
6653.319,6.8301
6655.248,6.824083
6657.177,6.815003
6659.105,6.809083
6661.034,6.802283
6662.962,6.786451
6664.891,6.770999
6666.819,6.75951
6668.748,6.75808
6670.676,6.756953
6672.604,6.751701
6674.533,6.737679
6676.462,6.72309
6678.39,6.709838
6680.318,6.702163
6682.247,6.695132
6684.176,6.685755
6686.104,6.673737
6688.032,6.661416
6689.961,6.642143
6691.89,6.629514
6693.818,6.618509
6695.747,6.608076
6697.675,6.596744
6699.604,6.581246
6701.532,6.566463
6703.46,6.549328
6705.389,6.535411
6707.317,6.522782
6709.246,6.501029
6711.175,6.482856
6713.103,6.473102
6715.031,6.459794
6716.96,6.43809
6718.889,6.42062
6720.817,6.407179
6722.746,6.392246
6724.674,6.37764
6726.603,6.365652
6728.531,6.349481
6730.459,6.336339
6732.388,6.321192
6734.316,6.312039
6736.245,6.298374
6738.174,6.283511
6740.102,6.27266
6742.03,6.259751
6743.959,6.239748
6745.888,6.223444
6747.816,6.209748
6749.745,6.201159
6751.673,6.186386
6753.602,6.172523
6755.53,6.155125
6757.458,6.141468
6759.387,6.128629
6761.315,6.114765
6763.244,6.099947
6765.173,6.090955
6767.101,6.073615
6769.029,6.053434
6770.958,6.036003
6772.887,6.016088
6774.815,5.991974
6776.743,5.970401
6778.672,5.947392
6780.601,5.925108
6782.529,5.89864
6784.458,5.87658
6786.386,5.851714
6788.314,5.821093
6790.243,5.790527
6792.171,5.7646
6794.1,5.736895
6796.028,5.705395
6797.957,5.67824
6799.886,5.648887
6801.814,5.617279
6803.742,5.591151
6805.671,5.562508
6807.6,5.537059
6809.528,5.510678
6811.457,5.482164
6813.385,5.454356
6815.313,5.426299
6817.242,5.395321
6819.17,5.365916
6821.099,5.339037
6823.027,5.311962
6824.956,5.276634
6826.885,5.244072
6828.813,5.214078
6830.741,5.183291
6832.67,5.156211
6834.599,5.13264
6836.527,5.112427
6838.455,5.098838
6840.384,5.089222
6842.313,5.081465
6844.241,5.062903
6846.169,5.049423
6848.098,5.041801
6850.026,5.026869
6851.955,5.011588
6853.884,5.002326
6855.812,4.992661
6857.74,4.974941
6859.669,4.960003
6861.598,4.946495
6863.526,4.932581
6865.454,4.922252
6867.383,4.909654
6869.312,4.890943
6871.24,4.878987
6873.168,4.864312
6875.097,4.844335
6877.025,4.826287
6878.954,4.80809
6880.882,4.790199
6882.811,4.768118
6884.739,4.748998
6886.668,4.72341
6888.597,4.708252
6890.525,4.693475
6892.453,4.668108
6894.382,4.644333
6896.311,4.627573
6898.239,4.612586
6900.167,4.599852
6902.096,4.589039
6904.024,4.578734
6905.953,4.565122
6907.881,4.558199
6909.81,4.544488
6911.738,4.530339
6913.667,4.513861
6915.596,4.499279
6917.524,4.486733
6919.452,4.467687
6921.381,4.447817
6923.31,4.424315
6925.238,4.400993
6927.166,4.381891
6929.095,4.357493
6931.023,4.334754
6932.952,4.310293
6934.88,4.281402
6936.809,4.248571
6938.737,4.21583
6940.666,4.189197
6942.594,4.164757
6944.523,4.139276
6946.451,4.119024
6948.38,4.099252
6950.309,4.086615
6952.237,4.079763
6954.165,4.078841
6956.094,4.075321
6958.022,4.078158
6959.951,4.08023
6961.879,4.07999
6963.808,4.084678
6965.736,4.08409
6967.665,4.080208
6969.593,4.083751
6971.521,4.091659
6973.45,4.095088
6975.379,4.087438
6977.308,4.076263
6979.236,4.076378
6981.164,4.084857
6983.093,4.077965
6985.021,4.070887
6986.95,4.067162
6988.878,4.060193
6990.807,4.050523
6992.735,4.045324
6994.664,4.035913
6996.592,4.025913
6998.521,4.011446
7000.449,3.998471
7002.378,3.986192
7004.307,3.968494
7006.235,3.957789
7008.163,3.948477
7010.092,3.929154
7012.021,3.91458
7013.949,3.902535
7015.877,3.893226
7017.806,3.88106
7019.734,3.873249
7021.663,3.866921
7023.591,3.860652
7025.52,3.858497
7027.448,3.860534
7029.377,3.869754
7031.305,3.882734
7033.234,3.888763
7035.162,3.888626
7037.091,3.887936
7039.02,3.896397
7040.948,3.895377
7042.876,3.894518
7044.805,3.887462
7046.733,3.873605
7048.662,3.849046
7050.59,3.818558
7052.519,3.786686
7054.447,3.749688
7056.376,3.714175
7058.304,3.682194
7060.232,3.654419
7062.161,3.64088
7064.09,3.638088
7066.019,3.657359
7067.947,3.685713
7069.875,3.726382
7071.804,3.775305
7073.732,3.818805
7075.661,3.865939
7077.589,3.919394
7079.518,3.972054
7081.446,4.009614
7083.375,4.041361
7085.303,4.067616
7087.231,4.087332
7089.16,4.105636
7091.089,4.124482
7093.018,4.144202
7094.946,4.164734
7096.874,4.179614
7098.803,4.192875
7100.731,4.217821
7102.66,4.246951
7104.588,4.282247
7106.517,4.314871
7108.445,4.338862
7110.374,4.369917
7112.302,4.397686
7114.23,4.427693
7116.159,4.464656
7118.088,4.498357
7120.016,4.516418
7121.944,4.541656
7123.873,4.554429
7125.802,4.570013
7127.73,4.582154
7129.659,4.587149
7131.587,4.580706
7133.516,4.570635
7135.444,4.56041
7137.373,4.540828
7139.301,4.529111
7141.229,4.507882
7143.158,4.472745
7145.087,4.442483
7147.015,4.40062
7148.943,4.35471
7150.872,4.302609
7152.801,4.237045
7154.729,4.16093
7156.658,4.074038
7158.586,3.978333
7160.515,3.868365
7162.443,3.737073
7164.372,3.611476
7166.3,3.504287
7168.229,3.420393
7170.157,3.359094
7172.086,3.325056
7174.014,3.332083
7175.942,3.365206
7177.871,3.419514
7179.8,3.492971
7181.729,3.592189
7183.657,3.665351
7185.585,3.738742
7187.514,3.821685
7189.442,3.91089
7191.371,3.991099
7193.299,4.069195
7195.228,4.151176
7197.156,4.231139
7199.085,4.298242
7201.013,4.369626
7202.941,4.443644
7204.87,4.526133
7206.799,4.58918
7208.727,4.658922
7210.655,4.722824
7212.584,4.783542
7214.513,4.842107
7216.441,4.89979
7218.37,4.960431
7220.298,5.035754
7222.227,5.093621
7224.155,5.153688
7226.083,5.229605
7228.012,5.299494
7229.94,5.362342
7231.869,5.451017
7233.798,5.510886
7235.726,5.560448
7237.654,5.615294
7239.583,5.673856
7241.512,5.743641
7243.44,5.818064
7245.369,5.861375
7247.297,5.913249
7249.226,5.969275
7251.154,6.034335
7253.083,6.102143
7255.011,6.155666
7256.939,6.200709
7258.868,6.260775
7260.797,6.322107
7262.725,6.389237
7264.653,6.435865
7266.582,6.491849
7268.511,6.55717
7270.439,6.615897
7272.368,6.675056
7274.296,6.734821
7276.225,6.785518
7278.153,6.838231
7280.082,6.894169
7282.01,6.95269
7283.938,7.001459
7285.867,7.053834
7287.796,7.110418
7289.724,7.162762
7291.652,7.200971
7293.581,7.267311
7295.51,7.32339
7297.438,7.364341
7299.366,7.424059
7301.295,7.46791
7303.224,7.508741
7305.152,7.567223
7307.081,7.633558
7309.009,7.683515
7310.938,7.740761
7312.866,7.785572
7314.794,7.824103
7316.723,7.869484
7318.651,7.906604
7320.58,7.957322
7322.509,8.004869
7324.437,8.038671
7326.365,8.070927
7328.294,8.124232
7330.223,8.14837
7332.151,8.172442
7334.08,8.190941
7336.008,8.22135
7337.937,8.25127
7339.865,8.294922
7341.793,8.310776
7343.722,8.330098
7345.65,8.339999
7347.579,8.364686
7349.508,8.389666
7351.436,8.402416
7353.364,8.423885
7355.293,8.465275
7357.222,8.483363
7359.15,8.491791
7361.079,8.510657
7363.007,8.535557
7364.936,8.556414
7366.864,8.586986
7368.792,8.61509
7370.721,8.625087
7372.649,8.637771
7374.578,8.666701
7376.507,8.683819
7378.435,8.697937
7380.363,8.724044
7382.292,8.742861
7384.221,8.751939
7386.149,8.760773
7388.077,8.770844
7390.006,8.788629
7391.935,8.797648
7393.863,8.808574
7395.792,8.810783
7397.72,8.83066
7399.648,8.84873
7401.577,8.849578
7403.505,8.857472
7405.434,8.867402
7407.362,8.87012
7409.291,8.879754
7411.22,8.886084
7413.148,8.88935
7415.076,8.898611
7417.005,8.906072
7418.934,8.909646
7420.862,8.92155
7422.791,8.922186
7424.719,8.926441
7426.647,8.935593
7428.576,8.942396
7430.504,8.949083
7432.433,8.950432
7434.361,8.952165
7436.29,8.959508
7438.219,8.962894
7440.147,8.961527
7442.075,8.964046
7444.004,8.967149
7445.933,8.977069
7447.861,8.984716
7449.789,8.992837
7451.718,9.00016
7453.646,9.001148
7455.575,9.004889
7457.503,9.004751
7459.432,9.00974
7461.36,9.011712
7463.289,9.015711
7465.218,9.017456
7467.146,9.023967
7469.074,9.024994
7471.003,9.021958
7472.932,9.026957
7474.86,9.024503
7476.788,9.025044
7478.717,9.024795
7480.646,9.028126
7482.574,9.037834
7484.502,9.037143
7486.431,9.03952
7488.359,9.03264
7490.288,9.02152
7492.216,9.017735
7494.145,9.021982
7496.073,9.024121
7498.002,9.017116
7499.931,9.016207
7501.859,9.016891
7503.787,9.016594
7505.716,9.012326
7507.645,9.004247
7509.573,9.007602
7511.501,9.013532
7513.43,9.012657
7515.358,9.012365
7517.287,9.012733
7519.215,9.010881
7521.144,9.004137
7523.072,9.00524
7525.001,9.014134
7526.93,9.013241
7528.858,9.008636
7530.786,9.011435
7532.715,9.00725
7534.644,9.00232
7536.572,9.000379
7538.5,8.993196
7540.429,8.994215
7542.357,8.990923
7544.286,8.985058
7546.214,8.974033
7548.143,8.971898
7550.071,8.971874
7552.0,8.970681
7553.928,8.974605
7555.857,8.972755
7557.785,8.96096
7559.714,8.950564
7561.643,8.947721
7563.571,8.952384
7565.499,8.954732
7567.428,8.948638
7569.356,8.936666
7571.285,8.928604
7573.213,8.928487
7575.142,8.926274
7577.07,8.921055
7578.999,8.920111
7580.927,8.916714
7582.855,8.907717
7584.784,8.898778
7586.713,8.90221
7588.642,8.900273
7590.57,8.895346
7592.498,8.88834
7594.427,8.873501
7596.355,8.866895
7598.284,8.863691
7600.212,8.864859
7602.141,8.860721
7604.069,8.855582
7605.998,8.851762
7607.926,8.843887
7609.854,8.832436
7611.783,8.825442
7613.712,8.817966
7615.641,8.816309
7617.569,8.81091
7619.497,8.805699
7621.426,8.795364
7623.354,8.785002
7625.283,8.770158
7627.211,8.756164
7629.14,8.74633
7631.068,8.742073
7632.997,8.736183
7634.925,8.728749
7636.854,8.719385
7638.782,8.712412
7640.711,8.705646
7642.639,8.692221
7644.568,8.684548
7646.496,8.679813
7648.425,8.671746
7650.354,8.664044
7652.282,8.661191
7654.21,8.648898
7656.139,8.638115
7658.067,8.631601
7659.996,8.630754
7661.924,8.621964
7663.853,8.613476
7665.781,8.608081
7667.71,8.602314
7669.638,8.58972
7671.566,8.581205
7673.495,8.58403
7675.424,8.580672
7677.353,8.575574
7679.281,8.571623
7681.209,8.568704
7683.138,8.557315
7685.066,8.553704
7686.995,8.555694
7688.923,8.551669
7690.852,8.544004
7692.78,8.538335
7694.709,8.527186
7696.637,8.529198
7698.565,8.528426
7700.494,8.518022
7702.423,8.507431
7704.352,8.505145
7706.28,8.505484
7708.208,8.500385
7710.137,8.49628
7712.065,8.488111
7713.994,8.4791
7715.922,8.472463
7717.851,8.470832
7719.779,8.468893
7721.708,8.459109
7723.636,8.457828
7725.564,8.456489
7727.493,8.44347
7729.422,8.427658
7731.35,8.428589
7733.279,8.432392
7735.207,8.42829
7737.136,8.421349
7739.064,8.412236
7740.993,8.413239
7742.921,8.412097
7744.85,8.404433
7746.778,8.400018
7748.707,8.393519
7750.635,8.388996
7752.563,8.379756
7754.492,8.375354
7756.421,8.375049
7758.349,8.36769
7760.277,8.351646
7762.206,8.337996
7764.135,8.331404
7766.063,8.32798
7767.992,8.321922
7769.92,8.320879
7771.849,8.320229
7773.777,8.315925
7775.706,8.305426
7777.634,8.304436
7779.563,8.305311
7781.491,8.298723
7783.42,8.293694
7785.348,8.291566
7787.276,8.284354
7789.205,8.280477
7791.134,8.273474
7793.063,8.271108
7794.991,8.269392
7796.919,8.264445
7798.848,8.260757
7800.776,8.255306
7802.705,8.241386
7804.633,8.231017
7806.562,8.226061
7808.49,8.221405
7810.419,8.220398
7812.347,8.211574
7814.275,8.208721
7816.204,8.208316
7818.133,8.198772
7820.061,8.183869
7821.989,8.183415
7823.918,8.187262
7825.847,8.178804
7827.775,8.156436
7829.704,8.149769
7831.632,8.141874
7833.561,8.138962
7835.489,8.131889
7837.417,8.121112
7839.346,8.111651
7841.274,8.107149
7843.203,8.105021
7845.132,8.097062
7847.06,8.085443
7848.988,8.06859
7850.917,8.059282
7852.846,8.054086
7854.774,8.040753
7856.703,8.023281
7858.631,8.013041
7860.56,8.009787
7862.488,7.99701
7864.417,7.980922
7866.345,7.974659
7868.273,7.967676
7870.202,7.951678
7872.131,7.931577
7874.059,7.923836
7875.987,7.913248
7877.916,7.907545
7879.845,7.895063
7881.773,7.87432
7883.702,7.855771
7885.63,7.845881
7887.559,7.839652
7889.487,7.832211
7891.416,7.816133
7893.344,7.800342
7895.272,7.782712
7897.201,7.773404
7899.13,7.782265
7901.058,7.751841
7902.986,7.72459
7904.915,7.701891
7906.844,7.682997
7908.772,7.675985
7910.7,7.665283
7912.629,7.648843
7914.558,7.637195
7916.486,7.619164
7918.415,7.593135
7920.343,7.58078
7922.271,7.569569
7924.2,7.556561
7926.128,7.540422
7928.057,7.522367
7929.985,7.506429
7931.914,7.485593
7933.843,7.46319
7935.771,7.450263
7937.699,7.43316
7939.628,7.411855
7941.557,7.39505
7943.485,7.37619
7945.414,7.355192
7947.342,7.333714
7949.271,7.316015
7951.199,7.299481
7953.127,7.273022
7955.056,7.250826
7956.984,7.227617
7958.913,7.204453
7960.842,7.188936
7962.77,7.168847
7964.698,7.149828
7966.627,7.128248
7968.556,7.104062
7970.484,7.076177
7972.413,7.052043
7974.341,7.035029
7976.27,7.017256
7978.198,6.992696
7980.126,6.973322
7982.055,6.949028
7983.983,6.926573
7985.912,6.895541
7987.841,6.86708
7989.769,6.845511
7991.697,6.824042
7993.626,6.799077
7995.555,6.7729
7997.483,6.755244
7999.411,6.727102
8001.34,6.692289
8003.269,6.672583
8005.197,6.654338
8007.125,6.631344
8009.054,6.602685
8010.982,6.578063
8012.911,6.550226
8014.839,6.517051
8016.768,6.495383
8018.696,6.460196
8020.625,6.428689
8022.554,6.403438
8024.482,6.375474
8026.41,6.348643
8028.339,6.316971
8030.268,6.280417
8032.196,6.2504
8034.125,6.228068
8036.053,6.207776
8037.981,6.181102
8039.91,6.145248
8041.838,6.109812
8043.767,6.082938
8045.695,6.047853
8047.624,6.006436
8049.553,5.975463
8051.481,5.945408
8053.409,5.904001
8055.338,5.867938
8057.267,5.840955
8059.195,5.810054
8061.124,5.778857
8063.052,5.743899
8064.98,5.706821
8066.909,5.677992
8068.837,5.647328
8070.766,5.611967
8072.694,5.573863
8074.623,5.5414
8076.552,5.506596
8078.48,5.467818
8080.408,5.426523
8082.337,5.395644
8084.266,5.352848
8086.194,5.313811
8088.122,5.281145
8090.051,5.242639
8091.979,5.206873
8093.908,5.176599
8095.836,5.14015
8097.765,5.100048
8099.693,5.064694
8101.622,5.030962
8103.551,4.994669
8105.479,4.952786
8107.407,4.907555
8109.336,4.867199
8111.265,4.831646
8113.192,4.799309
8115.121,4.756317
8117.05,4.704551
8118.979,4.658749
8120.907,4.625616
8122.835,4.595461
8124.764,4.559087
8126.692,4.504641
8128.621,4.459084
8130.55,4.418089
8132.478,4.374499
8134.406,4.336987
8136.335,4.30064
8138.264,4.252342
8140.191,4.206548
8142.12,4.160028
8144.049,4.119296
8145.978,4.078891
8147.906,4.030179
8149.834,3.989561
8151.763,3.949816
8153.691,3.912527
8155.62,3.873817
8157.548,3.842118
8159.477,3.798495
8161.405,3.746602
8163.334,3.705988
8165.263,3.666183
8167.19,3.619781
8169.119,3.585473
8171.048,3.553854
8172.977,3.510118
8174.905,3.46504
8176.833,3.429804
8178.762,3.397619
8180.69,3.360207
8182.619,3.329743
8184.547,3.304779
8186.476,3.268406
8188.404,3.239057
8190.333,3.226757
8192.262,3.201263
8194.189,3.164485
8196.118,3.139942
8198.047,3.119389
8199.976,3.099033
8201.903,3.077067
8203.832,3.054278
8205.761,3.04094
8207.689,3.024553
8209.618,3.007444
8211.546,3.008219
8213.475,3.005559
8215.403,2.995652
8217.332,2.984925
8219.261,2.98703
8221.188,2.989377
8223.117,2.980085
8225.046,2.977499
8226.975,2.980428
8228.902,2.979769
8230.831,2.980614
8232.76,2.98974
8234.688,2.995217
8236.617,2.99941
8238.545,3.003142
8240.474,3.004731
8242.402,3.007259
8244.331,3.007683
8246.259,3.006272
8248.188,3.019474
8250.116,3.027535
8252.045,3.030821
8253.974,3.043301
8255.901,3.063456
8257.83,3.065705
8259.759,3.066799
8261.688,3.07281
8263.616,3.082783
8265.544,3.101217
8267.473,3.11849
8269.401,3.139867
8271.33,3.164025
8273.258,3.173767
8275.187,3.186162
8277.115,3.21286
8279.044,3.227762
8280.973,3.242019
8282.9,3.267353
8284.829,3.290999
8286.758,3.312977
8288.687,3.341311
8290.614,3.3728
8292.543,3.402276
8294.472,3.431121
8296.4,3.457886
8298.329,3.488243
8300.257,3.514524
8302.186,3.532578
8304.114,3.552628
8306.043,3.583474
8307.972,3.612166
8309.899,3.642911
8311.828,3.680847
8313.757,3.707242
8315.686,3.73125
8317.613,3.763001
8319.542,3.784271
8321.471,3.79936
8323.399,3.834891
8325.328,3.875482
8327.256,3.896416
8329.185,3.918441
8331.113,3.95143
8333.042,3.985059
8334.97,4.013759
8336.898,4.044952
8338.827,4.075638
8340.756,4.104273
8342.685,4.138462
8344.612,4.178091
8346.541,4.217142
8348.47,4.256872
8350.398,4.293102
8352.327,4.32766
8354.255,4.368852
8356.184,4.40122
8358.112,4.434156
8360.041,4.472495
8361.969,4.508705
8363.897,4.552764
8365.826,4.588289
8367.755,4.620638
8369.684,4.663084
8371.611,4.697606
8373.54,4.738419
8375.469,4.768213
8377.397,4.798636
8379.325,4.834701
8381.254,4.875077
8383.183,4.902538
8385.111,4.93447
8387.04,4.962338
8388.968,4.99082
8390.896,5.019947
8392.825,5.043482
8394.754,5.057115
8396.683,5.07238
8398.61,5.088448
8400.539,5.090791
8402.468,5.097506
8404.396,5.098684
8406.324,5.108184
8408.253,5.10879
8410.182,5.105853
8412.11,5.107099
8414.039,5.110178
8415.967,5.113405
8417.896,5.118298
8419.824,5.118437
8421.753,5.121624
8423.681,5.115567
8425.609,5.129535
8427.538,5.151692
8429.467,5.162297
8431.396,5.172413
8433.323,5.195527
8435.252,5.237347
8437.181,5.278436
8439.109,5.312715
8441.037,5.359544
8442.966,5.399153
8444.895,5.438773
8446.823,5.485107
8448.752,5.533338
8450.68,5.57764
8452.608,5.623356
8454.537,5.658322
8456.466,5.692502
8458.395,5.726477
8460.322,5.763508
8462.251,5.798227
8464.18,5.82927
8466.108,5.861344
8468.036,5.886503
8469.965,5.90916
8471.894,5.946346
8473.822,5.98738
8475.751,6.024438
8477.679,6.063251
8479.607,6.102087
8481.536,6.147346
8483.465,6.18442
8485.393,6.220252
8487.321,6.254613
8489.25,6.286479
8491.179,6.324425
8493.107,6.356778
8495.035,6.391371
8496.964,6.418675
8498.893,6.443092
8500.821,6.4625
8502.75,6.478821
8504.678,6.497827
8506.606,6.511309
8508.535,6.513056
8510.464,6.528615
8512.392,6.544667
8514.32,6.563268
8516.249,6.574407
8518.178,6.58708
8520.106,6.600811
8522.034,6.620444
8523.963,6.642559
8525.892,6.647901
8527.82,6.65439
8529.748,6.669067
8531.677,6.67622
8533.605,6.680706
8535.534,6.682212
8537.463,6.685077
8539.391,6.672302
8541.319,6.643664
8543.248,6.623754
8545.177,6.59851
8547.105,6.572941
8549.033,6.542067
8550.962,6.503082
8552.891,6.457115
8554.819,6.404958
8556.747,6.357561
8558.676,6.316843
8560.604,6.293335
8562.533,6.272974
8564.462,6.262676
8566.39,6.274379
8568.318,6.302714
8570.247,6.334381
8572.176,6.377541
8574.104,6.432176
8576.032,6.475634
8577.961,6.519132
8579.89,6.585505
8581.818,6.649693
8583.746,6.693766
8585.675,6.7446
8587.604,6.816906
8589.532,6.887252
8591.461,6.962604
8593.389,7.038633
8595.317,7.093464
8597.246,7.148844
8599.175,7.21304
8601.103,7.285423
8603.031,7.362213
8604.96,7.427196
8606.889,7.491578
8608.817,7.556832
8610.745,7.619135
8612.674,7.679348
8614.603,7.737988
8616.531,7.790424
8618.459,7.853416
8620.388,7.907839
8622.316,7.959102
8624.245,8.000132
8626.174,8.058618
8628.102,8.119884
8630.03,8.153883
8631.959,8.188186
8633.888,8.250823
8635.816,8.297348
8637.744,8.334247
8639.673,8.37055
8641.602,8.415775
8643.53,8.451039
8645.458,8.489985
8647.387,8.527723
8649.315,8.556427
8651.244,8.594332
8653.173,8.627123
8655.101,8.65201
8657.029,8.679536
8658.958,8.716343
8660.887,8.750325
8662.814,8.767061
8664.743,8.781198
8666.672,8.807259
8668.601,8.838944
8670.529,8.860984
8672.457,8.897251
8674.386,8.935162
8676.314,8.95951
8678.243,8.977231
8680.172,9.007278
8682.1,9.029359
8684.028,9.052452
8685.957,9.080115
8687.886,9.100097
8689.813,9.12755
8691.742,9.150234
8693.671,9.178918
8695.6,9.217002
8697.528,9.246781
8699.456,9.272775
8701.385,9.290956
8703.313,9.325431
8705.242,9.35996
8707.17,9.396713
8709.099,9.41186
8711.027,9.440004
8712.956,9.474349
8714.885,9.500049
8716.813,9.532044
8718.741,9.566014
8720.67,9.592486
8722.599,9.620423
8724.527,9.646589
8726.455,9.67009
8728.384,9.700365
8730.313,9.736013
8732.241,9.775273
8734.169,9.804346
8736.098,9.82674
8738.026,9.851777
8739.955,9.891087
8741.884,9.913378
8743.812,9.936205
8745.74,9.963078
8747.669,9.990787
8749.598,10.02649
8751.525,10.05313
8753.454,10.07985
8755.383,10.10439
8757.312,10.12772
8759.24,10.14391
8761.168,10.1616
8763.097,10.17564
8765.025,10.18496
8766.954,10.21
8768.882,10.24952
8770.811,10.26923
8772.739,10.27272
8774.668,10.27793
8776.597,10.30325
8778.524,10.33344
8780.453,10.35392
8782.382,10.36287
8784.311,10.37446
8786.239,10.39052
8788.167,10.40422
8790.096,10.432
8792.024,10.44842
8793.953,10.44792
8795.881,10.45612
8797.81,10.46523
8799.738,10.48
8801.667,10.49206
8803.596,10.50761
8805.523,10.52415
8807.452,10.52942
8809.381,10.53452
8811.31,10.54683
8813.237,10.56754
8815.166,10.57304
8817.095,10.56824
8819.023,10.57741
8820.952,10.59443
8822.88,10.60659
8824.809,10.60622
8826.737,10.6038
8828.666,10.60346
8830.595,10.6185
8832.522,10.6279
8834.451,10.63645
8836.38,10.63911
8838.309,10.64473
8840.236,10.65217
8842.165,10.64378
8844.094,10.64346
8846.022,10.66584
8847.951,10.67262
8849.879,10.65738
8851.808,10.66961
8853.736,10.68065
8855.665,10.67634
8857.593,10.68065
8859.521,10.68493
8861.45,10.6847
8863.379,10.69603
8865.308,10.71067
8867.235,10.70153
8869.164,10.69743
8871.093,10.70944
8873.021,10.71956
8874.95,10.70747
8876.878,10.70667
8878.807,10.71294
8880.735,10.71685
8882.664,10.70969
8884.592,10.71147
8886.521,10.71589
8888.449,10.70977
8890.378,10.70597
8892.307,10.72172
8894.234,10.72305
8896.163,10.71968
8898.092,10.73168
8900.021,10.74361
8901.948,10.73455
8903.877,10.71819
8905.806,10.70848
8907.734,10.71438
8909.663,10.71356
8911.591,10.70168
8913.52,10.69933
8915.448,10.70044
8917.377,10.70755
8919.306,10.70639
8921.233,10.70207
8923.162,10.70297
8925.091,10.71152
8927.02,10.71706
8928.947,10.7122
8930.876,10.70002
8932.805,10.68535
8934.733,10.68156
8936.662,10.6949
8938.59,10.6978
8940.519,10.68562
8942.447,10.68134
8944.376,10.67958
8946.304,10.68505
8948.232,10.70322
8950.161,10.70483
8952.09,10.69951
8954.019,10.69997
8955.946,10.7065
8957.875,10.69621
8959.804,10.69171
8961.732,10.70101
8963.661,10.71284
8965.589,10.71415
8967.518,10.71608
8969.446,10.71923
8971.375,10.71945
8973.303,10.70775
8975.231,10.70334
8977.16,10.71651
8979.089,10.714
8981.018,10.72427
8982.945,10.73403
8984.874,10.73093
8986.803,10.73076
8988.731,10.73936
8990.659,10.73668
8992.588,10.74289
8994.517,10.73298
8996.445,10.7295
8998.374,10.7346
9000.302,10.74525
9002.23,10.75091
9004.159,10.74968
9006.088,10.7453
9008.017,10.74841
9009.944,10.76376
9011.873,10.77929
9013.802,10.78835
9015.73,10.79744
9017.658,10.78429
9019.587,10.77752
9021.516,10.79837
9023.444,10.80585
9025.373,10.8051
9027.301,10.80551
9029.229,10.80633
9031.158,10.80986
9033.087,10.81392
9035.015,10.805
9036.943,10.80347
9038.872,10.79214
9040.801,10.80579
9042.729,10.81178
9044.657,10.81744
9046.586,10.82467
9048.515,10.82534
9050.443,10.8253
9052.372,10.8316
9054.3,10.83551
9056.229,10.82801
9058.157,10.83934
9060.086,10.84672
9062.014,10.84166
9063.942,10.83167
9065.871,10.83228
9067.8,10.83261
9069.729,10.83047
9071.656,10.8423
9073.585,10.84227
9075.514,10.83195
9077.442,10.84216
9079.37,10.84679
9081.299,10.86079
9083.228,10.86523
9085.156,10.87266
9087.085,10.87391
9089.013,10.87669
9090.941,10.8569
9092.87,10.83731
9094.799,10.8433
9096.727,10.86204
9098.655,10.86654
9100.584,10.8771
9102.513,10.87644
9104.441,10.88332
9106.369,10.88471
9108.298,10.87834
9110.227,10.87326
9112.155,10.87
9114.084,10.8624
9116.012,10.86609
9117.94,10.87017
9119.869,10.87624
9121.798,10.86935
9123.726,10.86902
9125.654,10.86847
9127.583,10.87195
9129.512,10.86819
9131.44,10.86559
9133.368,10.86424
9135.297,10.86737
9137.226,10.86641
9139.154,10.86944
9141.082,10.8587
9143.011,10.85768
9144.939,10.85785
9146.868,10.86492
9148.797,10.87434
9150.725,10.87022
9152.653,10.86091
9154.582,10.86552
9156.511,10.87896
9158.439,10.88325
9160.367,10.87238
9162.296,10.85441
9164.225,10.84851
9166.153,10.85734
9168.081,10.85944
9170.01,10.84632
9171.938,10.83337
9173.867,10.84437
9175.796,10.85619
9177.724,10.84935
9179.652,10.82127
9181.581,10.81615
9183.51,10.83375
9185.438,10.8255
9187.366,10.80596
9189.295,10.81244
9191.224,10.82328
9193.152,10.82594
9195.08,10.81884
9197.009,10.8078
9198.938,10.81404
9200.866,10.80998
9202.795,10.80128
9204.723,10.8045
9206.651,10.79665
9208.58,10.80725
9210.509,10.80912
9212.437,10.79346
9214.365,10.79134
9216.294,10.80293
9218.223,10.78659
9220.151,10.76955
9222.079,10.77571
9224.008,10.79854
9225.937,10.79598
9227.865,10.79346
9229.793,10.79131
9231.722,10.77908
9233.65,10.78096
9235.579,10.76373
9237.508,10.74123
9239.436,10.75431
9241.364,10.76827
9243.293,10.77993
9245.222,10.777
9247.15,10.78154
9249.078,10.77561
9251.007,10.76872
9252.936,10.77232
9254.864,10.7606
9256.792,10.76033
9258.721,10.75416
9260.649,10.74554
9262.578,10.75503
9264.507,10.76341
9266.435,10.76298
9268.363,10.75781
9270.292,10.76822
9272.221,10.76068
9274.148,10.75528
9276.077,10.75344
9278.006,10.74708
9279.935,10.74371
9281.863,10.74113
9283.791,10.74026
9285.72,10.73661
9287.648,10.71693
9289.577,10.72902
9291.506,10.76252
9293.434,10.75219
9295.362,10.71807
9297.291,10.71946
9299.22,10.73473
9301.147,10.73738
9303.076,10.73733
9305.005,10.74258
9306.934,10.74359
9308.862,10.75599
9310.79,10.75278
9312.719,10.7417
9314.647,10.73863
9316.576,10.73647
9318.504,10.74074
9320.433,10.7442
9322.361,10.74409
9324.29,10.74918
9326.219,10.74529
9328.146,10.73607
9330.075,10.73132
9332.004,10.71834
9333.933,10.73695
9335.861,10.73322
9337.789,10.73309
9339.718,10.73561
9341.646,10.72936
9343.575,10.73496
9345.503,10.74769
9347.432,10.74493
9349.36,10.73459
9351.289,10.73424
9353.218,10.719
9355.146,10.71595
9357.074,10.70601
9359.003,10.70746
9360.932,10.7136
9362.859,10.70924
9364.788,10.70546
9366.717,10.70124
9368.646,10.69552
9370.574,10.69811
9372.502,10.70103
9374.431,10.67865
9376.359,10.67455
9378.288,10.69349
9380.217,10.68789
9382.145,10.67425
9384.073,10.67107
9386.002,10.66841
9387.931,10.64419
9389.858,10.64508
9391.787,10.64781
9393.716,10.6583
9395.645,10.64632
9397.573,10.63553
9399.501,10.63975
9401.43,10.64678
9403.358,10.63691
9405.287,10.6252
9407.215,10.60755
9409.144,10.60465
9411.072,10.61858
9413.001,10.61114
9414.93,10.60822
9416.857,10.60464
9418.786,10.58928
9420.715,10.58861
9422.644,10.59018
9424.571,10.57128
9426.5,10.55715
9428.429,10.5716
9430.357,10.56956
9432.286,10.54334
9434.214,10.53655
9436.143,10.53439
9438.071,10.52935
9440.0,10.51054
9441.929,10.51069
9443.856,10.50863
9445.785,10.49979
9447.714,10.50063
9449.643,10.48256
9451.57,10.48645
9453.499,10.47605
9455.428,10.47804
9457.356,10.47552
9459.285,10.47188
9461.213,10.46977
9463.142,10.46471
9465.07,10.44862
9466.999,10.43229
9468.927,10.42673
9470.855,10.41627
9472.784,10.40857
9474.713,10.41088
9476.642,10.40807
9478.569,10.40761
9480.498,10.42665
9482.427,10.43322
9484.355,10.41988
9486.284,10.41521
9488.212,10.4028
9490.141,10.39092
9492.069,10.37954
9493.998,10.36765
9495.926,10.38252
9497.854,10.38867
9499.783,10.37908
9501.712,10.3771
9503.641,10.37369
9505.568,10.3758
9507.497,10.37373
9509.426,10.35609
9511.354,10.35834
9513.282,10.364
9515.211,10.35502
9517.14,10.34651
9519.068,10.34547
9520.997,10.34358
9522.925,10.35172
9524.854,10.35742
9526.782,10.33891
9528.711,10.31335
9530.64,10.3358
9532.567,10.34246
9534.496,10.33194
9536.425,10.32535
9538.354,10.33725
9540.281,10.33424
9542.21,10.31121
9544.139,10.29635
9546.067,10.27729
9547.996,10.27627
9549.924,10.27472
9551.853,10.2699
9553.781,10.26558
9555.71,10.2552
9557.638,10.2611
9559.566,10.24947
9561.495,10.23555
9563.424,10.22702
9565.353,10.2219
9567.28,10.23602
9569.209,10.22316
9571.138,10.20152
9573.066,10.21092
9574.995,10.22622
9576.923,10.22763
9578.852,10.19945
9580.78,10.18951
9582.709,10.17548
9584.637,10.16631
9586.565,10.18943
9588.494,10.19067
9590.423,10.18164
9592.352,10.18867
9594.279,10.1931
9596.208,10.18345
9598.137,10.18208
9600.065,10.19581
9601.993,10.1974
9603.922,10.20672
9605.851,10.21246
9607.779,10.22285
9609.708,10.21713
9611.636,10.22115
9613.564,10.23389
9615.493,10.23201
9617.422,10.23907
9619.351,10.23208
9621.278,10.23891
9623.207,10.25527
9625.136,10.26414
9627.064,10.27843
9628.992,10.29604
9630.921,10.28467
9632.85,10.29568
9634.778,10.32277
9636.707,10.34311
9638.635,10.32445
9640.563,10.32965
9642.492,10.35886
9644.421,10.37612
9646.349,10.39057
9648.277,10.37784
9650.206,10.39144
9652.135,10.41277
9654.063,10.40813
9655.991,10.42994
9657.92,10.44543
9659.849,10.43677
9661.777,10.4463
9663.706,10.46322
9665.634,10.46804
9667.563,10.49873
9669.491,10.52131
9671.42,10.52607
9673.348,10.53271
9675.276,10.53595
9677.205,10.55458
9679.134,10.55446
9681.063,10.55317
9682.99,10.58447
9684.919,10.59221
9686.848,10.59764
9688.776,10.62529
9690.704,10.62941
9692.633,10.61422
9694.562,10.61203
9696.49,10.61816
9698.419,10.63299
9700.347,10.66182
9702.275,10.6463
9704.204,10.64568
9706.133,10.67506
9708.062,10.68754
9709.989,10.70588
9711.918,10.70149
9713.847,10.70777
9715.775,10.74196
9717.703,10.75861
9719.632,10.76031
9721.561,10.77285
9723.489,10.77764
9725.418,10.78584
9727.346,10.79086
9729.274,10.82291
9731.203,10.83239
9733.132,10.82326
9735.06,10.82656
9736.988,10.86958
9738.917,10.90677
9740.846,10.88516
9742.774,10.88516
9744.702,10.8937
9746.631,10.89875
9748.56,10.91131
9750.488,10.92304
9752.416,10.93352
9754.345,10.9346
9756.273,10.95319
9758.202,10.97489
9760.131,10.95508
9762.059,10.95154
9763.987,10.94245
9765.916,10.94681
9767.845,10.9488
9769.773,10.93736
9771.701,10.9533
9773.63,10.97046
9775.559,10.98046
9777.487,10.98905
9779.415,10.97952
9781.344,10.99676
9783.272,11.00776
9785.201,10.97569
9787.13,10.96896
9789.058,10.99327
9790.986,11.00311
9792.915,11.0102
9794.844,10.99558
9796.771,11.01057
9798.7,11.0101
9800.629,10.99864
9802.558,11.00199
9804.486,11.00653
9806.414,10.9997
9808.343,11.00113
9810.271,11.01319
9812.2,10.99503
9814.129,10.98787
9816.057,11.00438
9817.985,11.00709
9819.914,11.00854
9821.843,11.01733
9823.771,10.99567
9825.699,10.98785
9827.628,10.98996
9829.557,10.99864
9831.485,11.0195
9833.413,11.02994
9835.342,11.0295
9837.271,11.0466
9839.199,11.03791
9841.127,11.02938
9843.056,11.06928
9844.984,11.09459
9846.913,11.07834
9848.842,11.09262
9850.77,11.1271
9852.698,11.13945
9854.627,11.12942
9856.556,11.13212
9858.484,11.14485
9860.412,11.14803
9862.341,11.15937
9864.27,11.18871
9866.198,11.18032
9868.126,11.17231
9870.055,11.20389
9871.983,11.20885
9873.912,11.18358
9875.841,11.2271
9877.769,11.285
9879.697,11.29409
9881.626,11.3032
9883.555,11.30706
9885.482,11.32266
9887.411,11.35239
9889.34,11.33812
9891.269,11.32667
9893.197,11.34422
9895.125,11.3599
9897.054,11.36036
9898.982,11.36047
9900.911,11.35744
9902.84,11.37327
9904.768,11.37967
9906.696,11.40039
9908.625,11.40874
9910.554,11.43392
9912.481,11.41671
9914.41,11.41438
9916.339,11.44213
9918.268,11.46366
9920.196,11.44401
9922.124,11.43707
9924.053,11.45814
9925.981,11.49013
9927.91,11.50902
9929.838,11.48414
9931.767,11.48633
9933.695,11.51092
9935.624,11.53495
9937.553,11.51579
9939.48,11.52609
9941.409,11.53923
9943.338,11.54316
9945.267,11.55819
9947.195,11.56369
9949.123,11.54064
9951.052,11.54687
9952.98,11.55962
9954.909,11.57649
9956.837,11.63079
9958.766,11.62239
9960.694,11.59156
9962.623,11.60882
9964.552,11.6486
9966.479,11.65426
9968.408,11.64299
9970.337,11.6635
9972.266,11.65358
9974.193,11.63674
9976.122,11.64499
9978.051,11.6458
9979.979,11.67852
9981.908,11.68462
9983.836,11.67883
9985.765,11.6849
9987.693,11.70852
9989.622,11.71068
9991.551,11.71562
9993.479,11.72248
9995.407,11.70245
9997.336,11.72211
9999.265,11.70901
10001.19,11.69255
10003.12,11.70259
10005.05,11.72601
10006.98,11.72821
10008.91,11.74569
10010.83,11.75975
10012.76,11.76931
10014.69,11.78795
10016.62,11.77128
10018.55,11.76603
10020.48,11.76362
10022.41,11.77256
10024.33,11.80765
10026.26,11.78741
10028.19,11.76115
10030.12,11.79432
10032.05,11.80261
10033.98,11.81537
10035.91,11.8379
10037.83,11.83928
10039.76,11.83715
10041.69,11.86881
10043.62,11.89852
10045.55,11.88561
10047.48,11.85684
10049.41,11.89137
10051.33,11.89328
10053.26,11.87008
10055.19,11.87464
10057.12,11.89928
10059.05,11.8964
10060.98,11.91691
10062.9,11.91305
10064.83,11.86731
10066.76,11.87956
10068.69,11.89645
10070.62,11.91175
10072.55,11.94329
10074.48,11.9537
10076.4,11.95915
10078.33,11.94516
10080.26,11.95205
10082.19,11.94954
10084.12,11.92916
10086.05,11.95219
10087.98,11.96383
10089.9,11.92563
10091.83,11.92538
10093.76,11.94354
10095.69,11.9531
10097.62,11.95694
10099.55,11.98671
10101.47,11.99227
10103.4,11.96648
10105.33,11.94018
10107.26,11.96345
10109.19,11.9756
10111.12,11.94602
10113.05,11.95129
10114.97,11.94277
10116.9,11.96631
10118.83,11.98116
10120.76,11.97189
10122.69,12.00309
10124.62,11.99521
10126.54,12.00119
10128.47,12.00616
10130.4,11.99564
10132.33,11.98136
10134.26,12.00572
10136.19,12.01257
10138.12,12.04263
10140.04,12.03849
10141.97,12.01761
10143.9,12.02456
10145.83,12.02752
10147.76,12.02588
10149.69,12.01751
10151.62,12.00895
10153.54,12.01969
10155.47,12.01267
10157.4,12.03094
10159.33,12.02239
10161.26,12.01092
10163.19,12.03105
10165.12,12.07022
10167.04,12.05587
10168.97,12.03659
10170.9,12.02515
10172.83,12.04772
10174.76,12.05291
10176.69,12.01801
10178.61,11.99867
10180.54,11.98557
10182.47,12.01427
10184.4,12.03852
10186.33,12.06507
10188.26,12.07289
10190.19,12.06192
10192.11,12.042
10194.04,12.05993
10195.97,12.07306
10197.9,12.03884
10199.83,12.02976
10201.76,12.03512
10203.69,12.03269
10205.61,12.06944
10207.54,12.09463
10209.47,12.095
10211.4,12.08351
10213.33,12.04793
10215.26,12.03789
10217.18,12.07037
10219.11,12.07984
10221.04,12.11015
10222.97,12.10485
10224.9,12.08535
10226.83,12.07962
10228.76,12.08235
10230.68,12.07218
10232.61,12.07542
10234.54,12.05292
10236.47,12.06065
10238.4,12.0633
10240.33,12.03651
10242.25,12.05532
10244.18,12.04003
10246.11,12.03405
10248.04,12.02624
10249.97,12.06102
10251.9,12.07605
10253.83,12.05539
10255.75,12.03272
10257.68,12.03222
10259.61,12.05407
10261.54,12.07081
10263.47,12.09191
10265.4,12.08482
10267.33,12.05708
10269.25,12.0558
10271.18,12.05942
10273.11,12.05237
10275.04,12.0497
10276.97,12.05324
10278.9,12.071
10280.83,12.05961
10282.75,12.0216
10284.68,12.02054
10286.61,12.05602
10288.54,12.06595
10290.47,12.04485
10292.4,12.03713
10294.32,12.04858
10296.25,12.0544
10298.18,12.06602
10300.11,12.08092
10302.04,12.0643
10303.97,12.04355
10305.9,12.05621
10307.82,12.08748
10309.75,12.04823
10311.68,12.03695
10313.61,12.01466
10315.54,12.02244
10317.47,12.00332
10319.4,11.98042
10321.32,12.02153
10323.25,12.04508
10325.18,12.02103
10327.11,12.00807
10329.04,12.02985
10330.97,12.04166
10332.89,12.05749
10334.82,12.08432
10336.75,12.06583
10338.68,12.06132
10340.61,12.04361
10342.54,11.98039
10344.47,11.98382
10346.39,12.02478
10348.32,12.02949
10350.25,12.01081
10352.18,12.00969
10354.11,12.00772
10356.04,12.04139
10357.96,12.04986
10359.89,12.01598
10361.82,12.00989
10363.75,12.04832
10365.68,12.061
10367.61,12.05963
10369.54,12.03067
10371.46,12.02079
10373.39,12.03431
10375.32,12.04335
10377.25,12.03611
10379.18,12.00208
10381.11,12.02493
10383.04,12.03717
10384.96,11.97791
10386.89,11.98058
10388.82,12.01368
10390.75,12.01218
10392.68,12.00354
10394.61,12.02617
10396.54,12.01472
10398.46,11.99538
10400.39,11.98189
10402.32,12.01495
10404.25,11.99723
10406.18,12.00899
10408.11,12.01074
10410.03,11.9918
10411.96,11.9473
10413.89,11.97823
10415.82,11.98098
10417.75,11.9761
10419.68,12.01194
10421.61,12.03619
10423.53,12.00379
10425.46,11.9839
10427.39,11.95936
10429.32,11.93585
10431.25,11.938
10433.18,11.91879
10435.1,11.94132
10437.03,11.96633
10438.96,11.9303
10440.89,11.90063
10442.82,11.94712
10444.75,11.94998
10446.68,11.92262
10448.6,11.92907
10450.53,11.88883
10452.46,11.88467
10454.39,11.93149
10456.32,11.94422
10458.25,11.90954
10460.18,11.90838
10462.1,11.89111
10464.03,11.90941
10465.96,11.90015
10467.89,11.86616
10469.82,11.85136
10471.75,11.88035
10473.67,11.90435
10475.6,11.88381
10477.53,11.85395
10479.46,11.8469
10481.39,11.838
10483.32,11.8605
10485.25,11.85305
10487.17,11.80691
10489.1,11.79187
10491.03,11.82039
10492.96,11.83315
10494.89,11.78715
10496.82,11.74428
10498.75,11.75831
10500.67,11.74327
10502.6,11.75484
10504.53,11.7796
10506.46,11.80387
10508.39,11.74623
10510.32,11.73224
10512.25,11.73184
10514.17,11.73293
10516.1,11.7124
10518.03,11.67887
10519.96,11.68901
10521.89,11.70346
10523.82,11.69657
10525.74,11.64637
10527.67,11.57224
10529.6,11.5643
10531.53,11.57628
10533.46,11.59288
10535.39,11.58515
10537.32,11.58422
10539.24,11.6056
10541.17,11.5814
10543.1,11.56364
10545.03,11.55898
10546.96,11.53855
10548.89,11.50226
10550.81,11.47186
10552.74,11.47339
10554.67,11.46316
10556.6,11.40102
10558.53,11.40843
10560.46,11.4181
10562.39,11.41047
10564.31,11.39146
10566.24,11.37046
10568.17,11.30448
10570.1,11.29712
10572.03,11.33619
10573.96,11.28715
10575.89,11.26488
10577.81,11.17039
10579.74,11.08193
10581.67,11.08175
10583.6,11.1096
10585.53,11.09194
10587.46,11.08982
10589.38,11.08145
10591.31,11.0393
10593.24,11.00876
10595.17,11.00941
10597.1,10.96961
10599.03,10.94689
10600.96,10.9292
10602.88,10.91852
10604.81,10.88436
10606.74,10.87415
10608.67,10.85262
10610.6,10.8092
10612.53,10.73851
10614.46,10.71255
10616.38,10.70841
10618.31,10.67493
10620.24,10.61382
10622.17,10.60197
10624.1,10.59037
10626.03,10.56822
10627.96,10.54026
10629.88,10.50393
10631.81,10.45574
10633.74,10.40347
10635.67,10.34866
10637.6,10.33651
10639.53,10.31738
10641.45,10.29939
10643.38,10.29132
10645.31,10.27051
10647.24,10.23846
10649.17,10.1546
10651.1,10.05858
10653.03,10.06866
10654.95,10.06563
10656.88,10.03163
10658.81,9.988937
10660.74,9.970503
10662.67,9.935537
10664.6,9.904151
10666.52,9.899247
10668.45,9.852365
10670.38,9.855481
10672.31,9.821239
10674.24,9.732064
10676.17,9.677834
10678.1,9.665556
10680.02,9.693989
10681.95,9.670779
10683.88,9.627895
10685.81,9.567961
10687.74,9.552903
10689.67,9.535741
10691.59,9.536467
10693.52,9.531569
10695.45,9.517565
10697.38,9.505955
10699.31,9.488622
10701.24,9.473979
10703.17,9.491721
10705.09,9.48037
10707.02,9.45273
10708.95,9.442744
10710.88,9.439786
10712.81,9.38362
10714.74,9.383663
10716.67,9.375694
10718.59,9.381834
10720.52,9.360775
10722.45,9.398651
10724.38,9.411639
10726.31,9.388909
10728.24,9.333793
10730.17,9.340335
10732.09,9.354034
10734.02,9.390981
10735.95,9.414773
10737.88,9.396621
10739.81,9.39491
10741.74,9.447297
10743.67,9.465323
10745.59,9.434743
10747.52,9.428761
10749.45,9.461952
10751.38,9.503838
10753.31,9.529428
10755.24,9.549705
10757.16,9.546252
10759.09,9.58027
10761.02,9.606581
10762.95,9.585838
10764.88,9.57513
10766.81,9.627108
10768.74,9.621007
10770.66,9.631701
10772.59,9.668355
10774.52,9.661835
10776.45,9.676908
10778.38,9.714754
10780.31,9.762864
10782.23,9.764803
10784.16,9.777421
10786.09,9.789397
10788.02,9.858603
10789.95,9.878225
10791.88,9.817265
10793.81,9.852165
10795.73,9.948005
10797.66,9.924345
10799.59,9.909498
10801.52,9.946674
10803.45,9.988598
10805.38,9.99473
10807.3,10.03924
10809.23,10.10911
10811.16,10.15949
10813.09,10.16094
10815.02,10.16345
10816.95,10.16455
10818.88,10.1777
10820.8,10.2429
10822.73,10.29708
10824.66,10.30075
10826.59,10.3099
10828.52,10.30826
10830.45,10.33484
10832.38,10.40738
10834.3,10.43878
10836.23,10.4901
10838.16,10.50303
10840.09,10.49353
10842.02,10.54693
10843.95,10.55036
10845.88,10.55713
10847.8,10.59169
10849.73,10.63582
10851.66,10.64704
10853.59,10.63892
10855.52,10.64513
10857.45,10.6696
10859.38,10.70739
10861.3,10.75562
10863.23,10.80757
10865.16,10.83128
10867.09,10.85941
10869.02,10.85749
10870.95,10.88718
10872.87,10.92008
10874.8,10.91142
10876.73,11.01009
10878.66,11.05723
10880.59,11.05254
10882.52,11.03805
10884.45,11.10185
10886.37,11.14903
10888.3,11.15992
10890.23,11.11842
10892.16,11.17751
10894.09,11.1866
10896.02,11.18452
10897.94,11.20263
10899.87,11.27738
10901.8,11.30465
10903.73,11.2816
10905.66,11.28262
10907.59,11.3554
10909.52,11.3743
10911.44,11.34872
10913.37,11.37418
10915.3,11.39867
10917.23,11.39915
10919.16,11.43468
10921.09,11.42039
10923.01,11.49026
10924.94,11.52114
10926.87,11.45402
10928.8,11.46372
10930.73,11.52574
10932.66,11.5648
10934.59,11.59609
10936.51,11.64191
10938.44,11.65417
10940.37,11.61383
10942.3,11.62934
10944.23,11.707
10946.16,11.69037
10948.09,11.68873
10950.01,11.71038
10951.94,11.72915
10953.87,11.77178
10955.8,11.80194
10957.73,11.83087
10959.66,11.82973
10961.58,11.89938
10963.51,11.96523
10965.44,11.95599
10967.37,11.96214
10969.3,11.99454
10971.23,12.0152
10973.16,11.99957
10975.08,11.96211
10977.01,11.97442
10978.94,12.00739
10980.87,12.07946
10982.8,12.10079
10984.73,12.06446
10986.66,12.05702
10988.58,12.01803
10990.51,12.0536
10992.44,12.14137
10994.37,12.11562
10996.3,12.12689
10998.23,12.12065
11000.16,12.14009
11002.08,12.20878
11004.01,12.23002
11005.94,12.20954
11007.87,12.1952
11009.8,12.22021
11011.73,12.28004
11013.65,12.31483
11015.58,12.26079
11017.51,12.2437
11019.44,12.23951
11021.37,12.29509
11023.3,12.33883
11025.23,12.31716
11027.15,12.32365
11029.08,12.32309
11031.01,12.3181
11032.94,12.31945
11034.87,12.34494
11036.8,12.32169
11038.72,12.34403
11040.65,12.39205
11042.58,12.40334
11044.51,12.37475
11046.44,12.3993
11048.37,12.37309
11050.3,12.38104
11052.22,12.41463
11054.15,12.44538
11056.08,12.45652
11058.01,12.45621
11059.94,12.45005
11061.87,12.46242
11063.79,12.51918
11065.72,12.47116
11067.65,12.4367
11069.58,12.49872
11071.51,12.525
11073.44,12.51045
11075.37,12.50091
11077.29,12.48929
11079.22,12.56353
11081.15,12.59874
11083.08,12.54623
11085.01,12.48928
11086.94,12.51779
11088.87,12.54948
11090.79,12.51052
11092.72,12.49011
11094.65,12.45322
11096.58,12.5221
11098.51,12.57849
11100.44,12.53271
11102.37,12.54392
11104.29,12.57054
11106.22,12.59123
11108.15,12.60563
11110.08,12.57202
11112.01,12.52615
11113.94,12.51397
11115.87,12.56415
11117.79,12.58737
11119.72,12.57914
11121.65,12.54935
11123.58,12.56236
11125.51,12.53086
11127.44,12.58972
11129.36,12.59054
11131.29,12.53218
11133.22,12.50315
11135.15,12.5719
11137.08,12.62273
11139.01,12.60045
11140.94,12.57006
11142.86,12.66444
11144.79,12.70217
11146.72,12.65696
11148.65,12.64724
11150.58,12.68671
11152.51,12.64524
11154.43,12.6861
11156.36,12.76309
11158.29,12.69045
11160.22,12.7061
11162.15,12.78429
11164.08,12.79302
11166.01,12.70647
11167.93,12.66282
11169.86,12.71825
11171.79,12.755
11173.72,12.78415
11175.65,12.7708
11177.58,12.76701
11179.5,12.72433
11181.43,12.73482
11183.36,12.76966
11185.29,12.74566
11187.22,12.7337
11189.15,12.7669
11191.08,12.78713
11193.0,12.81157
11194.93,12.84026
11196.86,12.84131
11198.79,12.85291
11200.72,12.85328
11202.65,12.86662
11204.58,12.88573
11206.5,12.87711
11208.43,12.93491
11210.36,12.91989
11212.29,12.91302
11214.22,12.94812
11216.15,13.01343
11218.08,12.96993
11220.0,12.98258
11221.93,13.0206
11223.86,13.01116
11225.79,12.95901
11227.72,12.97303
11229.65,13.01049
11231.58,12.94863
11233.5,12.91423
11235.43,12.95146
11237.36,12.99417
11239.29,13.04443
11241.22,13.02856
11243.15,12.98939
11245.07,12.96345
11247.0,13.00224
11248.93,13.07051
11250.86,13.128
11252.79,13.15815
11254.72,13.1099
11256.65,13.08818
11258.57,13.11806
11260.5,13.15676
11262.43,13.13074
11264.36,13.0654
11266.29,13.07169
11268.22,13.13454
11270.14,13.14503
11272.07,13.12195
11274.0,13.06729
11275.93,13.07274
11277.86,13.11011
11279.79,13.17339
11281.72,13.2281
11283.64,13.20538
11285.57,13.1676
11287.5,13.18185
11289.43,13.22128
11291.36,13.17816
11293.29,13.16072
11295.21,13.13057
11297.14,13.1325
11299.07,13.18888
11301.0,13.23131
11302.93,13.25456
11304.86,13.27487
11306.79,13.28945
11308.71,13.25301
11310.64,13.2214
11312.57,13.28308
11314.5,13.24163
11316.43,13.22073
11318.36,13.22561
11320.29,13.29984
11322.21,13.34768
11324.14,13.28276
11326.07,13.24912
11328.0,13.31719
11329.93,13.34675
11331.86,13.3504
11333.79,13.35555
11335.71,13.2938
11337.64,13.26514
11339.57,13.31305
11341.5,13.32156
11343.43,13.39409
11345.36,13.34631
11347.28,13.37748
11349.21,13.33272
11351.14,13.23862
11353.07,13.35571
11355.0,13.49086
11356.93,13.429
11358.86,13.38276
11360.78,13.32847
11362.71,13.33057
11364.64,13.30822
11366.57,13.30285
11368.5,13.28977
11370.43,13.34893
11372.36,13.32354
11374.28,13.28228
11376.21,13.33953
11378.14,13.43816
11380.07,13.44974
11382.0,13.4583
11383.93,13.44469
11385.85,13.3851
11387.78,13.30988
11389.71,13.33953
11391.64,13.36277
11393.57,13.38797
11395.5,13.46195
11397.43,13.42955
11399.35,13.39379
11401.28,13.36825
11403.21,13.3477
11405.14,13.4153
11407.07,13.43531
11409.0,13.46009
11410.92,13.44924
11412.85,13.47865
11414.78,13.48978
11416.71,13.46851
11418.64,13.53471
11420.57,13.55905
11422.5,13.4757
11424.42,13.44837
11426.35,13.45896
11428.28,13.47726
11430.21,13.4343
11432.14,13.42492
11434.07,13.45505
11436.0,13.49984
11437.92,13.47617
11439.85,13.55821
11441.78,13.59326
11443.71,13.52798
11445.64,13.44513
11447.57,13.419
11449.5,13.49104
11451.42,13.61479
11453.35,13.54956
11455.28,13.4869
11457.21,13.53897
11459.14,13.53248
11461.07,13.50096
11462.99,13.52124
11464.92,13.51415
11466.85,13.54821
11468.78,13.5716
11470.71,13.56698
11472.64,13.51496
11474.57,13.57094
11476.49,13.65232
11478.42,13.66979
11480.35,13.58384
11482.28,13.56615
11484.21,13.49562
11486.14,13.44207
11488.07,13.50999
11489.99,13.54092
11491.92,13.57305
11493.85,13.65429
11495.78,13.64712
11497.71,13.65273
11499.64,13.70592
11501.56,13.68505
11503.49,13.71869
11505.42,13.65213
11507.35,13.58358
11509.28,13.62482
11511.21,13.6788
11513.14,13.70562
11515.06,13.6569
11516.99,13.64529
11518.92,13.67508
11520.85,13.69925
11522.78,13.6253
11524.71,13.61993
11526.63,13.70453
11528.56,13.75933
11530.49,13.68746
11532.42,13.67192
11534.35,13.71395
11536.28,13.63541
11538.21,13.58321
11540.13,13.67364
11542.06,13.7093
11543.99,13.74176
11545.92,13.73289
11547.85,13.8054
11549.78,13.76786
11551.71,13.76208
11553.63,13.71187
11555.56,13.64995
11557.49,13.69854
11559.42,13.78593
11561.35,13.75839
11563.28,13.7562
11565.21,13.58065
11567.13,13.54668
11569.06,13.67179
11570.99,13.75932
11572.92,13.69822
11574.85,13.63287
11576.78,13.66323
11578.7,13.7365
11580.63,13.77672
11582.56,13.75745
11584.49,13.76993
11586.42,13.85211
11588.35,13.90994
11590.28,13.84683
11592.2,13.68576
11594.13,13.6933
11596.06,13.7388
11597.99,13.78359
11599.92,13.831
11601.85,13.92916
11603.78,13.83851
11605.7,13.72722
11607.63,13.73505
11609.56,13.87292
11611.49,13.95604
11613.42,13.83271
11615.35,13.61471
11617.27,13.64858
11619.2,13.77921
11621.13,13.82278
11623.06,13.90903
11624.99,13.95387
11626.92,13.81356
11628.85,13.68885
11630.77,13.71037
11632.7,13.79097
11634.63,13.77456
11636.56,13.79608
11638.49,13.80525
11640.42,13.80505
11642.34,13.77493
11644.27,13.79952
11646.2,13.77076
11648.13,13.77264
11650.06,13.78483
11651.99,13.85124
11653.92,13.83918
11655.84,13.77418
11657.77,13.85705
11659.7,13.95584
11661.63,13.84545
11663.56,13.71718
11665.49,13.73973
11667.42,13.81827
11669.34,13.9492
11671.27,13.9282
11673.2,13.91207
11675.13,13.87167
11677.06,13.84252
11678.99,13.8267
11680.92,13.8039
11682.84,13.82113
11684.77,13.8433
11686.7,13.87265
11688.63,13.85436
11690.56,13.86229
11692.49,13.88802
11694.41,13.87629
11696.34,13.84452
11698.27,13.77671
11700.2,13.79875
11702.13,13.79199
11704.06,13.8305
11705.99,13.78809
11707.91,13.69444
11709.84,13.68468
11711.77,13.84457
11713.7,13.9369
11715.63,13.87406
11717.56,13.91026
11719.48,13.92256
11721.41,13.89294
11723.34,13.91374
11725.27,14.05961
11727.2,13.99081
11729.13,13.76473
11731.06,13.88487
11732.98,13.92708
11734.91,13.83636
11736.84,13.8242
11738.77,13.9259
11740.7,13.8719
11742.63,13.81847
11744.56,13.96563
11746.48,13.98413
11748.41,13.93355
11750.34,14.0326
11752.27,14.06977
11754.2,13.99327
11756.13,14.03595
11758.05,13.87765
11759.98,13.80541
11761.91,13.92991
11763.84,14.00588
11765.77,13.97549
11767.7,13.89651
11769.63,13.92334
11771.55,13.95327
11773.48,13.99981
11775.41,13.94548
11777.34,13.94878
11779.27,13.95637
11781.2,13.89484
11783.13,13.70917
11785.05,13.78578
11786.98,13.86939
11788.91,13.8608
11790.84,13.82911
11792.77,13.73773
11794.7,13.65028
11796.63,13.72253
11798.55,13.77884
11800.48,13.81738
11802.41,13.78995
11804.34,13.76943
11806.27,13.82293
11808.2,13.90107
11810.12,13.8894
11812.05,13.82312
11813.98,13.71642
11815.91,13.80812
11817.84,13.88867
11819.77,13.85156
11821.7,13.86768
11823.62,13.86448
11825.55,13.78752
11827.48,13.87511
11829.41,13.80033
11831.34,13.75323
11833.27,13.76767
11835.19,13.76447
11837.12,13.79425
11839.05,13.89567
11840.98,13.9167
11842.91,13.85668
11844.84,13.70554
11846.77,13.53709
11848.69,13.35687
11850.62,13.69718
11852.55,13.9311
11854.48,13.90908
11856.41,13.88957
11858.34,13.89656
11860.27,13.92889
11862.19,13.85524
11864.12,13.97169
11866.05,14.02213
11867.98,13.90963
11869.91,13.75162
11871.84,13.68968
11873.76,13.82848
11875.69,13.79165
11877.62,13.83566
11879.55,13.90791
11881.48,13.9208
11883.41,13.87001
11885.34,13.83544
11887.26,13.83314
11889.19,13.93529
11891.12,13.89953
11893.05,13.70214
11894.98,13.73712
11896.91,13.81268
11898.83,13.76011
11900.76,13.82868
11902.69,13.87963
11904.62,13.92703
11906.55,13.93829
11908.48,13.88207
11910.41,13.92167
11912.33,13.83734
11914.26,13.72812
11916.19,13.77229
11918.12,13.83168
11920.05,13.9913
11921.98,13.97884
11923.91,13.83551
11925.83,13.84477
11927.76,13.93028
11929.69,13.97144
11931.62,13.91868
11933.55,13.9513
11935.48,13.97701
11937.41,13.85826
11939.33,13.80088
11941.26,13.89891
11943.19,13.90292
11945.12,13.87472
11947.05,13.86327
11948.98,13.97379
11950.9,13.94153
11952.83,13.89688
11954.76,13.8602
11956.69,13.79307
11958.62,13.86036
11960.55,13.84203
11962.48,13.81709
11964.4,13.92093
11966.33,13.8215
11968.26,13.71155
11970.19,13.59605
11972.12,13.47518
11974.05,13.55447
11975.98,13.74524
11977.9,13.81491
11979.83,13.81184
11981.76,13.78762
11983.69,13.73536
11985.62,13.73932
11987.55,13.94595
11989.47,14.04633
11991.4,13.85828
11993.33,13.74996
11995.26,13.73911
11997.19,13.88505
11999.12,13.95733
