Wavenumber,Intensity
3999.706,1.718722
4001.634,1.721869
4003.563,1.723944
4005.491,1.725926
4007.42,1.72759
4009.348,1.729684
4011.277,1.730261
4013.205,1.730686
4015.134,1.729089
4017.062,1.730355
4018.991,1.733404
4020.919,1.731896
4022.848,1.731357
4024.776,1.734509
4026.705,1.738009
4028.633,1.737497
4030.562,1.734887
4032.49,1.733656
4034.419,1.736427
4036.347,1.737194
4038.276,1.735744
4040.204,1.735123
4042.133,1.740073
4044.061,1.739746
4045.99,1.73514
4047.918,1.736807
4049.847,1.742931
4051.775,1.744553
4053.704,1.741936
4055.632,1.742714
4057.561,1.743027
4059.489,1.740143
4061.418,1.741091
4063.346,1.746172
4065.275,1.749461
4067.203,1.748687
4069.132,1.745378
4071.06,1.745558
4072.989,1.748789
4074.917,1.75218
4076.846,1.755032
4078.774,1.752873
4080.703,1.755548
4082.631,1.755801
4084.56,1.755247
4086.488,1.7541
4088.417,1.753433
4090.345,1.752994
4092.274,1.754425
4094.202,1.75557
4096.131,1.752634
4098.059,1.752434
4099.988,1.753073
4101.916,1.754971
4103.845,1.758088
4105.773,1.756887
4107.702,1.754858
4109.63,1.754827
4111.559,1.756877
4113.487,1.758484
4115.416,1.760002
4117.344,1.761957
4119.273,1.759536
4121.201,1.757914
4123.13,1.75773
4125.058,1.761878
4126.987,1.762837
4128.915,1.76254
4130.844,1.76408
4132.772,1.761691
4134.701,1.760899
4136.629,1.76175
4138.558,1.764356
4140.486,1.764298
4142.415,1.765586
4144.343,1.769391
4146.271,1.768466
4148.2,1.767323
4150.129,1.767756
4152.057,1.76802
4153.986,1.767362
4155.914,1.766544
4157.843,1.766664
4159.771,1.768071
4161.7,1.770725
4163.628,1.767116
4165.557,1.766088
4167.485,1.767264
4169.414,1.768166
4171.342,1.770309
4173.271,1.775576
4175.199,1.775729
4177.127,1.775319
4179.056,1.777561
4180.985,1.778026
4182.913,1.778569
4184.842,1.779465
4186.77,1.779306
4188.699,1.781023
4190.627,1.784418
4192.556,1.789272
4194.484,1.791105
4196.413,1.789764
4198.341,1.7919
4200.27,1.792809
4202.198,1.795162
4204.126,1.793674
4206.055,1.794352
4207.983,1.79825
4209.912,1.800862
4211.841,1.801973
4213.769,1.804459
4215.698,1.809025
4217.626,1.808575
4219.555,1.808532
4221.483,1.811188
4223.412,1.811926
4225.34,1.812036
4227.269,1.814174
4229.197,1.817579
4231.125,1.818046
4233.054,1.818497
4234.982,1.816115
4236.911,1.816445
4238.84,1.819905
4240.768,1.820645
4242.697,1.821475
4244.625,1.820379
4246.554,1.819578
4248.482,1.821021
4250.411,1.82163
4252.339,1.820756
4254.268,1.820158
4256.196,1.822742
4258.125,1.82268
4260.053,1.824269
4261.981,1.829782
4263.91,1.831349
4265.838,1.831594
4267.767,1.834782
4269.696,1.834848
4271.624,1.831869
4273.553,1.83227
4275.481,1.834245
4277.41,1.834423
4279.338,1.837008
4281.267,1.837192
4283.195,1.838533
4285.124,1.840088
4287.052,1.840831
4288.98,1.842964
4290.909,1.841979
4292.837,1.840442
4294.766,1.844648
4296.694,1.849121
4298.623,1.846785
4300.552,1.84524
4302.48,1.845511
4304.409,1.843474
4306.337,1.839673
4308.266,1.840016
4310.194,1.84362
4312.123,1.846435
4314.051,1.843499
4315.979,1.837719
4317.908,1.838497
4319.836,1.836381
4321.765,1.834347
4323.693,1.833355
4325.622,1.83504
4327.551,1.836922
4329.479,1.835248
4331.408,1.834779
4333.336,1.836187
4335.265,1.839138
4337.193,1.841259
4339.122,1.841663
4341.05,1.842637
4342.979,1.84473
4344.907,1.842609
4346.835,1.845688
4348.764,1.848609
4350.692,1.846884
4352.621,1.845324
4354.549,1.849496
4356.478,1.851214
4358.407,1.852258
4360.335,1.854193
4362.264,1.852172
4364.192,1.853337
4366.121,1.85126
4368.049,1.849536
4369.978,1.8496
4371.906,1.850703
4373.834,1.852915
4375.763,1.852574
4377.691,1.851249
4379.62,1.853073
4381.548,1.855007
4383.477,1.85275
4385.405,1.848915
4387.334,1.850932
4389.263,1.856944
4391.191,1.857367
4393.12,1.857589
4395.048,1.859321
4396.977,1.857424
4398.905,1.854504
4400.833,1.857197
4402.762,1.8603
4404.69,1.861486
4406.619,1.866313
4408.547,1.865824
4410.476,1.864247
4412.404,1.867639
4414.333,1.872509
4416.262,1.874103
4418.19,1.878068
4420.119,1.878927
4422.047,1.879475
4423.976,1.88481
4425.904,1.892555
4427.833,1.891709
4429.761,1.890906
4431.689,1.89417
4433.618,1.901305
4435.546,1.907434
4437.475,1.912861
4439.403,1.917296
4441.332,1.922075
4443.26,1.927403
4445.189,1.932136
4447.117,1.938983
4449.046,1.94496
4450.975,1.952682
4452.903,1.958696
4454.832,1.963965
4456.76,1.972055
4458.688,1.979759
4460.617,1.984074
4462.545,1.991527
4464.474,1.99801
4466.402,2.005782
4468.331,2.012274
4470.259,2.017409
4472.188,2.020681
4474.116,2.023901
4476.045,2.032022
4477.974,2.042408
4479.902,2.051363
4481.831,2.059326
4483.759,2.067773
4485.688,2.072753
4487.616,2.079181
4489.544,2.087933
4491.473,2.095677
4493.401,2.106334
4495.33,2.116404
4497.258,2.122058
4499.187,2.127836
4501.115,2.137164
4503.044,2.148637
4504.972,2.157609
4506.901,2.163659
4508.83,2.170675
4510.758,2.184147
4512.687,2.197108
4514.615,2.202409
4516.543,2.209198
4518.472,2.217789
4520.4,2.227305
4522.329,2.23804
4524.257,2.247411
4526.186,2.25838
4528.114,2.268014
4530.043,2.279546
4531.971,2.290387
4533.9,2.295731
4535.828,2.305459
4537.757,2.319565
4539.686,2.327971
4541.614,2.336405
4543.542,2.350702
4545.471,2.361173
4547.399,2.371439
4549.328,2.381517
4551.256,2.388873
4553.185,2.397004
4555.113,2.409435
4557.042,2.422107
4558.97,2.433968
4560.899,2.446647
4562.827,2.459359
4564.756,2.473491
4566.685,2.478961
4568.613,2.487764
4570.542,2.496624
4572.47,2.503999
4574.398,2.510688
4576.327,2.518568
4578.255,2.527716
4580.184,2.53642
4582.112,2.544031
4584.041,2.548647
4585.969,2.553444
4587.898,2.559689
4589.826,2.567175
4591.755,2.573985
4593.683,2.580378
4595.612,2.583529
4597.54,2.588698
4599.469,2.593044
4601.397,2.59741
4603.326,2.601716
4605.254,2.610226
4607.183,2.61477
4609.111,2.615599
4611.04,2.619969
4612.968,2.624458
4614.897,2.6287
4616.825,2.63356
4618.754,2.639651
4620.682,2.64538
4622.611,2.651972
4624.539,2.658653
4626.468,2.663827
4628.396,2.665816
4630.325,2.66665
4632.253,2.668442
4634.182,2.671245
4636.11,2.674326
4638.039,2.67857
4639.967,2.680294
4641.896,2.680202
4643.824,2.680312
4645.753,2.679184
4647.681,2.678676
4649.61,2.679744
4651.538,2.678389
4653.467,2.675647
4655.396,2.670829
4657.324,2.662772
4659.252,2.653939
4661.181,2.643081
4663.109,2.635516
4665.038,2.629596
4666.966,2.629074
4668.895,2.636385
4670.823,2.641525
4672.752,2.648328
4674.68,2.659605
4676.609,2.676703
4678.537,2.685102
4680.466,2.694109
4682.394,2.701758
4684.323,2.707664
4686.251,2.71388
4688.18,2.720535
4690.108,2.721959
4692.037,2.723336
4693.965,2.72233
4695.894,2.722281
4697.822,2.725412
4699.751,2.72622
4701.679,2.724127
4703.608,2.724191
4705.536,2.725165
4707.465,2.726081
4709.393,2.721659
4711.322,2.719018
4713.25,2.713399
4715.179,2.706662
4717.107,2.704867
4719.036,2.70144
4720.964,2.697182
4722.893,2.694335
4724.821,2.689026
4726.75,2.683359
4728.678,2.679418
4730.606,2.677597
4732.535,2.675311
4734.464,2.675406
4736.392,2.672189
4738.321,2.670136
4740.249,2.671869
4742.178,2.670578
4744.106,2.666331
4746.035,2.66285
4747.963,2.658633
4749.892,2.655779
4751.82,2.651752
4753.749,2.649156
4755.677,2.644684
4757.605,2.64365
4759.534,2.639227
4761.463,2.632145
4763.391,2.626689
4765.32,2.621623
4767.248,2.617679
4769.177,2.611987
4771.105,2.601782
4773.034,2.593771
4774.962,2.587755
4776.891,2.582721
4778.819,2.576548
4780.748,2.575585
4782.676,2.572141
4784.604,2.564834
4786.533,2.566091
4788.462,2.565981
4790.39,2.560949
4792.319,2.560636
4794.247,2.55704
4796.176,2.551447
4798.104,2.55133
4800.033,2.546257
4801.961,2.543385
4803.89,2.53894
4805.818,2.533608
4807.747,2.526449
4809.675,2.523744
4811.604,2.519893
4813.532,2.510698
4815.46,2.50364
4817.389,2.498545
4819.317,2.491465
4821.246,2.484157
4823.175,2.478537
4825.103,2.475286
4827.032,2.469777
4828.96,2.460319
4830.889,2.454401
4832.817,2.450902
4834.746,2.446694
4836.674,2.440098
4838.603,2.435785
4840.531,2.428395
4842.459,2.416789
4844.388,2.41011
4846.316,2.406581
4848.245,2.397769
4850.174,2.387565
4852.102,2.377857
4854.031,2.369874
4855.959,2.363768
4857.888,2.356523
4859.816,2.349413
4861.745,2.3464
4863.673,2.340983
4865.602,2.336887
4867.53,2.334566
4869.458,2.333999
4871.387,2.334868
4873.315,2.336099
4875.244,2.339708
4877.172,2.340013
4879.101,2.339016
4881.03,2.34113
4882.958,2.346829
4884.887,2.347087
4886.815,2.350359
4888.744,2.350574
4890.672,2.352739
4892.601,2.358618
4894.529,2.358894
4896.458,2.359012
4898.386,2.360277
4900.314,2.362133
4902.243,2.365771
4904.171,2.366565
4906.1,2.367749
4908.028,2.370967
4909.957,2.370658
4911.886,2.370517
4913.814,2.370098
4915.743,2.370528
4917.671,2.371865
4919.6,2.370867
4921.528,2.371871
4923.457,2.372382
4925.385,2.370598
4927.313,2.367482
4929.242,2.368915
4931.17,2.370579
4933.099,2.3675
4935.027,2.365674
4936.956,2.366207
4938.885,2.365618
4940.813,2.363453
4942.742,2.357109
4944.67,2.35385
4946.599,2.353671
4948.527,2.34564
4950.456,2.333555
4952.384,2.323616
4954.313,2.313931
4956.241,2.299165
4958.169,2.284566
4960.098,2.275293
4962.026,2.269478
4963.955,2.262156
4965.883,2.263288
4967.812,2.263213
4969.74,2.266616
4971.669,2.272618
4973.598,2.276429
4975.526,2.279367
4977.455,2.279466
4979.383,2.281881
4981.312,2.287691
4983.24,2.29301
4985.168,2.297894
4987.097,2.302444
4989.025,2.308674
4990.954,2.313732
4992.882,2.318363
4994.811,2.326045
4996.739,2.335624
4998.668,2.344027
5000.597,2.354289
5002.525,2.359146
5004.454,2.361614
5006.382,2.364688
5008.311,2.370709
5010.239,2.374713
5012.167,2.373936
5014.096,2.37218
5016.024,2.375662
5017.953,2.375461
5019.881,2.375201
5021.81,2.377759
5023.738,2.379835
5025.667,2.384495
5027.596,2.389275
5029.524,2.392305
5031.452,2.394617
5033.381,2.395151
5035.31,2.397583
5037.238,2.399792
5039.167,2.400012
5041.095,2.398803
5043.023,2.398298
5044.952,2.40162
5046.88,2.401883
5048.809,2.400137
5050.737,2.395781
5052.666,2.390886
5054.595,2.390124
5056.523,2.390226
5058.451,2.385109
5060.38,2.380991
5062.309,2.377496
5064.237,2.377921
5066.166,2.381129
5068.094,2.379944
5070.022,2.379359
5071.951,2.382486
5073.879,2.380855
5075.808,2.379912
5077.736,2.380444
5079.665,2.381578
5081.593,2.380321
5083.522,2.377913
5085.45,2.377491
5087.379,2.375707
5089.308,2.373291
5091.236,2.371216
5093.165,2.37051
5095.093,2.37078
5097.021,2.369853
5098.95,2.369065
5100.878,2.368722
5102.807,2.36968
5104.735,2.370669
5106.664,2.372202
5108.592,2.373956
5110.521,2.374143
5112.449,2.378517
5114.378,2.381622
5116.307,2.381646
5118.235,2.383027
5120.163,2.386458
5122.092,2.388798
5124.021,2.388829
5125.949,2.388576
5127.877,2.392123
5129.806,2.39398
5131.734,2.396886
5133.663,2.396791
5135.591,2.395779
5137.52,2.395269
5139.448,2.394931
5141.377,2.394671
5143.305,2.390264
5145.234,2.38598
5147.162,2.382798
5149.091,2.381653
5151.02,2.378785
5152.948,2.378493
5154.876,2.376442
5156.805,2.375652
5158.733,2.376898
5160.662,2.375365
5162.59,2.374512
5164.519,2.372401
5166.447,2.374672
5168.376,2.379707
5170.304,2.377977
5172.233,2.377196
5174.161,2.374183
5176.09,2.370043
5178.019,2.370586
5179.947,2.371284
5181.875,2.369763
5183.804,2.375962
5185.732,2.373322
5187.661,2.372133
5189.589,2.368267
5191.518,2.366889
5193.446,2.372331
5195.375,2.379764
5197.303,2.37829
5199.232,2.373415
5201.16,2.374557
5203.089,2.3795
5205.018,2.389989
5206.946,2.380774
5208.874,2.373827
5210.803,2.373905
5212.731,2.375648
5214.66,2.373028
5216.588,2.373589
5218.517,2.371832
5220.445,2.372631
5222.374,2.380197
5224.302,2.388849
5226.231,2.378036
5228.159,2.376831
5230.088,2.38306
5232.016,2.382149
5233.945,2.381576
5235.873,2.381246
5237.802,2.386713
5239.73,2.386939
5241.659,2.39237
5243.587,2.396263
5245.516,2.398015
5247.444,2.403155
5249.373,2.393254
5251.301,2.394255
5253.229,2.40103
5255.158,2.394886
5257.087,2.391938
5259.015,2.400351
5260.944,2.405797
5262.872,2.408207
5264.801,2.400436
5266.729,2.402895
5268.658,2.400784
5270.586,2.396142
5272.515,2.396375
5274.443,2.394559
5276.372,2.392853
5278.3,2.397569
5280.229,2.396962
5282.157,2.399917
5284.086,2.405558
5286.014,2.400074
5287.943,2.404372
5289.871,2.409113
5291.8,2.39886
5293.729,2.399863
5295.657,2.39947
5297.585,2.400076
5299.514,2.39476
5301.442,2.390483
5303.371,2.389726
5305.299,2.392712
5307.228,2.390564
5309.156,2.382987
5311.085,2.387765
5313.013,2.390082
5314.941,2.395485
5316.87,2.400084
5318.799,2.404505
5320.727,2.408271
5322.656,2.411664
5324.584,2.417602
5326.513,2.425005
5328.441,2.417192
5330.37,2.421789
5332.298,2.420893
5334.227,2.416264
5336.155,2.422565
5338.084,2.41495
5340.012,2.398915
5341.94,2.40497
5343.869,2.401296
5345.798,2.381567
5347.726,2.37922
5349.655,2.371715
5351.583,2.374306
5353.512,2.363599
5355.44,2.347778
5357.369,2.343893
5359.297,2.338607
5361.226,2.342027
5363.154,2.337373
5365.083,2.324935
5367.011,2.319194
5368.939,2.313376
5370.868,2.311272
5372.797,2.310143
5374.725,2.306105
5376.654,2.298748
5378.582,2.29021
5380.511,2.292638
5382.439,2.293351
5384.368,2.291014
5386.296,2.276683
5388.225,2.271956
5390.153,2.27232
5392.082,2.271057
5394.01,2.261669
5395.938,2.254637
5397.867,2.248261
5399.796,2.243267
5401.724,2.241907
5403.652,2.235507
5405.581,2.227678
5407.51,2.229182
5409.438,2.223575
5411.367,2.214706
5413.295,2.206149
5415.224,2.187437
5417.152,2.186093
5419.081,2.183394
5421.009,2.181488
5422.938,2.176536
5424.866,2.174337
5426.795,2.181542
5428.723,2.175148
5430.651,2.162692
5432.58,2.169842
5434.509,2.164165
5436.437,2.153691
5438.366,2.159594
5440.294,2.163445
5442.223,2.159446
5444.151,2.162626
5446.08,2.154824
5448.008,2.156539
5449.937,2.150728
5451.865,2.144839
5453.793,2.147516
5455.722,2.147681
5457.65,2.147631
5459.579,2.148396
5461.508,2.139723
5463.436,2.143311
5465.365,2.140378
5467.293,2.134274
5469.222,2.133628
5471.15,2.131156
5473.079,2.137403
5475.007,2.134027
5476.936,2.119058
5478.864,2.120041
5480.792,2.117023
5482.721,2.115385
5484.649,2.115653
5486.578,2.117602
5488.507,2.113676
5490.435,2.1146
5492.363,2.114422
5494.292,2.10404
5496.221,2.104772
5498.149,2.107258
5500.078,2.107292
5502.006,2.109909
5503.935,2.112611
5505.863,2.116733
5507.792,2.114
5509.72,2.112235
5511.648,2.117031
5513.577,2.117925
5515.505,2.117103
5517.434,2.116096
5519.362,2.119508
5521.291,2.119655
5523.22,2.117809
5525.148,2.119331
5527.077,2.118581
5529.005,2.116371
5530.934,2.117043
5532.862,2.118192
5534.791,2.118885
5536.719,2.117246
5538.647,2.118491
5540.576,2.118777
5542.504,2.114565
5544.433,2.112298
5546.361,2.112206
5548.29,2.113587
5550.219,2.11395
5552.147,2.113105
5554.076,2.111265
5556.004,2.110805
5557.933,2.114562
5559.861,2.118837
5561.79,2.120479
5563.718,2.121999
5565.646,2.123283
5567.575,2.123357
5569.503,2.123485
5571.432,2.128953
5573.36,2.133183
5575.289,2.134423
5577.218,2.141416
5579.146,2.146568
5581.074,2.149089
5583.003,2.152565
5584.932,2.157279
5586.86,2.158931
5588.789,2.157357
5590.717,2.156933
5592.646,2.158087
5594.574,2.158595
5596.502,2.157229
5598.431,2.15556
5600.359,2.152036
5602.288,2.147958
5604.216,2.144542
5606.145,2.141807
5608.073,2.138718
5610.002,2.132454
5611.931,2.128312
5613.859,2.123333
5615.788,2.120342
5617.716,2.119532
5619.645,2.112647
5621.573,2.107777
5623.501,2.105456
5625.43,2.100614
5627.358,2.098683
5629.287,2.097202
5631.215,2.095694
5633.144,2.093422
5635.072,2.08971
5637.001,2.085821
5638.93,2.082555
5640.858,2.077654
5642.786,2.072297
5644.715,2.065705
5646.644,2.059273
5648.572,2.052775
5650.5,2.050098
5652.429,2.045897
5654.357,2.041516
5656.286,2.039326
5658.214,2.035309
5660.143,2.035047
5662.071,2.034277
5664.0,2.035276
5665.929,2.035818
5667.857,2.036803
5669.785,2.037081
5671.714,2.036269
5673.643,2.036637
5675.571,2.03879
5677.5,2.042925
5679.428,2.045414
5681.356,2.05216
5683.285,2.050956
5685.213,2.050469
5687.142,2.050767
5689.07,2.053617
5690.999,2.058762
5692.927,2.060381
5694.856,2.064387
5696.784,2.069377
5698.713,2.075571
5700.642,2.078633
5702.57,2.081351
5704.499,2.088557
5706.427,2.094972
5708.355,2.10038
5710.284,2.100874
5712.212,2.102957
5714.141,2.110014
5716.069,2.108416
5717.998,2.107193
5719.926,2.106974
5721.855,2.103499
5723.783,2.098313
5725.712,2.09021
5727.641,2.079691
5729.569,2.073402
5731.497,2.070599
5733.426,2.067331
5735.354,2.068052
5737.283,2.068003
5739.211,2.065948
5741.14,2.060889
5743.068,2.057357
5744.997,2.053792
5746.925,2.047292
5748.854,2.041763
5750.782,2.041028
5752.711,2.042893
5754.639,2.042723
5756.568,2.040473
5758.496,2.037238
5760.425,2.034995
5762.354,2.029878
5764.282,2.031987
5766.21,2.033599
5768.139,2.030007
5770.067,2.03179
5771.996,2.032591
5773.924,2.028255
5775.853,2.02926
5777.781,2.030663
5779.71,2.031288
5781.638,2.030648
5783.567,2.03045
5785.495,2.034708
5787.424,2.035254
5789.353,2.031689
5791.281,2.035839
5793.209,2.039073
5795.138,2.039637
5797.066,2.040036
5798.995,2.037938
5800.923,2.036408
5802.852,2.040254
5804.78,2.038281
5806.709,2.038831
5808.637,2.042176
5810.566,2.040799
5812.494,2.043547
5814.423,2.0469
5816.352,2.05013
5818.28,2.051415
5820.208,2.051439
5822.137,2.050071
5824.065,2.053588
5825.994,2.055809
5827.922,2.060112
5829.851,2.064031
5831.779,2.065778
5833.708,2.065932
5835.636,2.069347
5837.565,2.072521
5839.493,2.073817
5841.422,2.076088
5843.35,2.08041
5845.279,2.085084
5847.207,2.090673
5849.136,2.101416
5851.064,2.115824
5852.993,2.126309
5854.921,2.13806
5856.85,2.15001
5858.778,2.166367
5860.707,2.187706
5862.635,2.206683
5864.563,2.228211
5866.492,2.258365
5868.421,2.288783
5870.349,2.323075
5872.278,2.358613
5874.206,2.397884
5876.135,2.438714
5878.063,2.481868
5879.992,2.526406
5881.92,2.572227
5883.849,2.61545
5885.777,2.657685
5887.706,2.699458
5889.634,2.737482
5891.563,2.771694
5893.491,2.79913
5895.42,2.827467
5897.348,2.849742
5899.277,2.866567
5901.205,2.889488
5903.134,2.915877
5905.063,2.944869
5906.991,2.977652
5908.919,3.014754
5910.848,3.05681
5912.776,3.102544
5914.705,3.154845
5916.633,3.210724
5918.562,3.266202
5920.49,3.323644
5922.419,3.379055
5924.347,3.432855
5926.276,3.48632
5928.204,3.542149
5930.133,3.594801
5932.061,3.644785
5933.99,3.687967
5935.918,3.734706
5937.847,3.775928
5939.775,3.816318
5941.704,3.859231
5943.632,3.896456
5945.561,3.930938
5947.489,3.971303
5949.418,4.007576
5951.346,4.044328
5953.274,4.083698
5955.203,4.120704
5957.132,4.160299
5959.06,4.204971
5960.989,4.247874
5962.917,4.290908
5964.846,4.335943
5966.774,4.385315
5968.703,4.426864
5970.631,4.465161
5972.56,4.508238
5974.488,4.551812
5976.417,4.591442
5978.345,4.631431
5980.273,4.668469
5982.202,4.704637
5984.131,4.742979
5986.059,4.778603
5987.988,4.810482
5989.916,4.844358
5991.845,4.880426
5993.773,4.913359
5995.702,4.946465
5997.63,4.977779
5999.559,5.00653
6001.487,5.039987
6003.416,5.072135
6005.344,5.102857
6007.272,5.134804
6009.201,5.163279
6011.13,5.190304
6013.058,5.21928
6014.986,5.249113
6016.915,5.279711
6018.844,5.304845
6020.772,5.329762
6022.701,5.35856
6024.629,5.390798
6026.558,5.413939
6028.486,5.435857
6030.415,5.460788
6032.343,5.485042
6034.271,5.504943
6036.2,5.527451
6038.129,5.550674
6040.057,5.572361
6041.985,5.590101
6043.914,5.609552
6045.843,5.629869
6047.771,5.647459
6049.7,5.666395
6051.628,5.690839
6053.557,5.707488
6055.485,5.725836
6057.414,5.74138
6059.342,5.756308
6061.271,5.769981
6063.199,5.78412
6065.128,5.79751
6067.056,5.811846
6068.984,5.827915
6070.913,5.842958
6072.842,5.854219
6074.77,5.873301
6076.698,5.885875
6078.627,5.898193
6080.556,5.910669
6082.484,5.922455
6084.413,5.930737
6086.341,5.943093
6088.27,5.95401
6090.198,5.965854
6092.126,5.974833
6094.055,5.977204
6095.983,5.977115
6097.912,5.978935
6099.841,5.980646
6101.769,5.975327
6103.697,5.973584
6105.626,5.980925
6107.555,5.988126
6109.483,6.000134
6111.412,6.010361
6113.34,6.01792
6115.269,6.028131
6117.197,6.042742
6119.125,6.059668
6121.054,6.077689
6122.982,6.093791
6124.911,6.111781
6126.84,6.12602
6128.768,6.139709
6130.696,6.155653
6132.625,6.171371
6134.554,6.183164
6136.482,6.199715
6138.41,6.216871
6140.339,6.229482
6142.268,6.238541
6144.196,6.251441
6146.125,6.266982
6148.053,6.278197
6149.981,6.285509
6151.91,6.29908
6153.839,6.310193
6155.767,6.321078
6157.695,6.331544
6159.624,6.344281
6161.553,6.359924
6163.481,6.372993
6165.409,6.377359
6167.338,6.387752
6169.267,6.402089
6171.195,6.414911
6173.124,6.42491
6175.052,6.432467
6176.98,6.440501
6178.909,6.45162
6180.837,6.462665
6182.766,6.47057
6184.694,6.477537
6186.623,6.485219
6188.552,6.486561
6190.48,6.490511
6192.408,6.496098
6194.337,6.503275
6196.266,6.512506
6198.194,6.526197
6200.123,6.531903
6202.051,6.53806
6203.979,6.540303
6205.908,6.546386
6207.836,6.555357
6209.765,6.562526
6211.693,6.566832
6213.622,6.575593
6215.551,6.580092
6217.479,6.583668
6219.407,6.586715
6221.336,6.590693
6223.265,6.599036
6225.193,6.60182
6227.121,6.600852
6229.05,6.605935
6230.979,6.614861
6232.907,6.62514
6234.835,6.627563
6236.764,6.628504
6238.692,6.634419
6240.621,6.638218
6242.549,6.635457
6244.478,6.6391
6246.406,6.638712
6248.335,6.643225
6250.264,6.641505
6252.192,6.641335
6254.12,6.644053
6256.049,6.646422
6257.978,6.651757
6259.906,6.654693
6261.834,6.65459
6263.763,6.658562
6265.691,6.662338
6267.62,6.660508
6269.548,6.662496
6271.477,6.666692
6273.405,6.67029
6275.334,6.673217
6277.263,6.672172
6279.191,6.671785
6281.119,6.673676
6283.048,6.677883
6284.977,6.680042
6286.905,6.68387
6288.833,6.682073
6290.762,6.680448
6292.69,6.679547
6294.619,6.68035
6296.547,6.684226
6298.476,6.688174
6300.404,6.689809
6302.333,6.692685
6304.262,6.692935
6306.19,6.695648
6308.118,6.695623
6310.047,6.695544
6311.976,6.695131
6313.904,6.693365
6315.832,6.69311
6317.761,6.694282
6319.689,6.690022
6321.618,6.686029
6323.546,6.684898
6325.475,6.685949
6327.403,6.682673
6329.332,6.681663
6331.26,6.681752
6333.189,6.676348
6335.117,6.670299
6337.046,6.665119
6338.975,6.657562
6340.903,6.65907
6342.831,6.650865
6344.76,6.641927
6346.688,6.638014
6348.617,6.636571
6350.545,6.631003
6352.474,6.622519
6354.402,6.616316
6356.331,6.61005
6358.259,6.600305
6360.188,6.596169
6362.116,6.591823
6364.045,6.582412
6365.974,6.568849
6367.902,6.556133
6369.83,6.544639
6371.759,6.530478
6373.688,6.516652
6375.616,6.512488
6377.544,6.503843
6379.473,6.496325
6381.401,6.489194
6383.33,6.485992
6385.258,6.482509
6387.187,6.47664
6389.115,6.471677
6391.044,6.468269
6392.973,6.463912
6394.901,6.458632
6396.829,6.450953
6398.758,6.444673
6400.687,6.434499
6402.615,6.42677
6404.543,6.413963
6406.472,6.398141
6408.4,6.37807
6410.329,6.363984
6412.257,6.352201
6414.186,6.340419
6416.114,6.323291
6418.043,6.310163
6419.971,6.297818
6421.9,6.289733
6423.828,6.286061
6425.757,6.280588
6427.686,6.269856
6429.614,6.259573
6431.542,6.257959
6433.471,6.252347
6435.399,6.240889
6437.328,6.231437
6439.256,6.217906
6441.185,6.202739
6443.113,6.185603
6445.042,6.167812
6446.97,6.147114
6448.898,6.123048
6450.827,6.102716
6452.756,6.083203
6454.685,6.059454
6456.613,6.031461
6458.541,5.999208
6460.47,5.967126
6462.398,5.926746
6464.327,5.879394
6466.255,5.826101
6468.184,5.766755
6470.112,5.705311
6472.041,5.641887
6473.969,5.575219
6475.897,5.511497
6477.826,5.456448
6479.755,5.416851
6481.684,5.390868
6483.612,5.380936
6485.54,5.385259
6487.469,5.390703
6489.397,5.402913
6491.326,5.422841
6493.254,5.440415
6495.183,5.455855
6497.111,5.476426
6499.04,5.499492
6500.968,5.518267
6502.896,5.537037
6504.825,5.554149
6506.754,5.573251
6508.682,5.589741
6510.61,5.606132
6512.539,5.616837
6514.468,5.626079
6516.396,5.633605
6518.325,5.642807
6520.253,5.653263
6522.182,5.664819
6524.11,5.670324
6526.039,5.683396
6527.967,5.691109
6529.896,5.697018
6531.824,5.70579
6533.753,5.71386
6535.681,5.723185
6537.609,5.728065
6539.538,5.730665
6541.467,5.741782
6543.396,5.748872
6545.324,5.752726
6547.252,5.753488
6549.181,5.761069
6551.109,5.767244
6553.038,5.771585
6554.966,5.772568
6556.895,5.779156
6558.823,5.784628
6560.752,5.787009
6562.68,5.794284
6564.608,5.80465
6566.537,5.813097
6568.466,5.817206
6570.394,5.825852
6572.323,5.84073
6574.251,5.847213
6576.18,5.847904
6578.108,5.856135
6580.037,5.869503
6581.965,5.86935
6583.894,5.87056
6585.822,5.874059
6587.751,5.876002
6589.679,5.877347
6591.607,5.876983
6593.536,5.878138
6595.465,5.881114
6597.393,5.882209
6599.321,5.886366
6601.25,5.888714
6603.179,5.886716
6605.107,5.885077
6607.036,5.883901
6608.964,5.88432
6610.893,5.884817
6612.821,5.877758
6614.75,5.875888
6616.678,5.873111
6618.606,5.871403
6620.535,5.872986
6622.464,5.873363
6624.392,5.866055
6626.32,5.86087
6628.249,5.854179
6630.178,5.847328
6632.106,5.845599
6634.035,5.84266
6635.963,5.841957
6637.892,5.837423
6639.82,5.832348
6641.749,5.831095
6643.677,5.81921
6645.605,5.809594
6647.534,5.809492
6649.463,5.807201
6651.391,5.797747
6653.319,5.789367
6655.248,5.781166
6657.177,5.774523
6659.105,5.768244
6661.034,5.761494
6662.962,5.75208
6664.891,5.741294
6666.819,5.730949
6668.748,5.729205
6670.676,5.722679
6672.604,5.713294
6674.533,5.70393
6676.462,5.699024
6678.39,5.684889
6680.318,5.673689
6682.247,5.667823
6684.176,5.659896
6686.104,5.644023
6688.032,5.633941
6689.961,5.6256
6691.89,5.616032
6693.818,5.602422
6695.747,5.589136
6697.675,5.579465
6699.604,5.567941
6701.532,5.553596
6703.46,5.539831
6705.389,5.525703
6707.317,5.514014
6709.246,5.499591
6711.175,5.486762
6713.103,5.475389
6715.031,5.460154
6716.96,5.437527
6718.889,5.425706
6720.817,5.416747
6722.746,5.398855
6724.674,5.38705
6726.603,5.379756
6728.531,5.363505
6730.459,5.350231
6732.388,5.335212
6734.316,5.321015
6736.245,5.311509
6738.174,5.298139
6740.102,5.286931
6742.03,5.279085
6743.959,5.261783
6745.888,5.249331
6747.816,5.237741
6749.745,5.224948
6751.673,5.213496
6753.602,5.200152
6755.53,5.181901
6757.458,5.166986
6759.387,5.154294
6761.315,5.143792
6763.244,5.134452
6765.173,5.120663
6767.101,5.107534
6769.029,5.092365
6770.958,5.075295
6772.887,5.059068
6774.815,5.044564
6776.743,5.027448
6778.672,5.0038
6780.601,4.983031
6782.529,4.96329
6784.458,4.943354
6786.386,4.92503
6788.314,4.90079
6790.243,4.876782
6792.171,4.856731
6794.1,4.83344
6796.028,4.809091
6797.957,4.786087
6799.886,4.761717
6801.814,4.735835
6803.742,4.716414
6805.671,4.69154
6807.6,4.665772
6809.528,4.64466
6811.457,4.625032
6813.385,4.601962
6815.313,4.575975
6817.242,4.54607
6819.17,4.521939
6821.099,4.50382
6823.027,4.481333
6824.956,4.45484
6826.885,4.432741
6828.813,4.407342
6830.741,4.380116
6832.67,4.358397
6834.599,4.33956
6836.527,4.320283
6838.455,4.308691
6840.384,4.293936
6842.313,4.286452
6844.241,4.276269
6846.169,4.263736
6848.098,4.253134
6850.026,4.237734
6851.955,4.224852
6853.884,4.213559
6855.812,4.201317
6857.74,4.188133
6859.669,4.179656
6861.598,4.166949
6863.526,4.151962
6865.454,4.136834
6867.383,4.123346
6869.312,4.107822
6871.24,4.093175
6873.168,4.078587
6875.097,4.064563
6877.025,4.052036
6878.954,4.036104
6880.882,4.017806
6882.811,3.998257
6884.739,3.980727
6886.668,3.963485
6888.597,3.951095
6890.525,3.936076
6892.453,3.913559
6894.382,3.895895
6896.311,3.876109
6898.239,3.856532
6900.167,3.845161
6902.096,3.833232
6904.024,3.819221
6905.953,3.808192
6907.881,3.798448
6909.81,3.789224
6911.738,3.77677
6913.667,3.766426
6915.596,3.750648
6917.524,3.73352
6919.452,3.717763
6921.381,3.703237
6923.31,3.683256
6925.238,3.668247
6927.166,3.65688
6929.095,3.634838
6931.023,3.612385
6932.952,3.591672
6934.88,3.568318
6936.809,3.542672
6938.737,3.522056
6940.666,3.503849
6942.594,3.476958
6944.523,3.462528
6946.451,3.454134
6948.38,3.435429
6950.309,3.422138
6952.237,3.415479
6954.165,3.412181
6956.094,3.401294
6958.022,3.405467
6959.951,3.407289
6961.879,3.401972
6963.808,3.398994
6965.736,3.396325
6967.665,3.39659
6969.593,3.400007
6971.521,3.402041
6973.45,3.401721
6975.379,3.396177
6977.308,3.394469
6979.236,3.396142
6981.164,3.392208
6983.093,3.386658
6985.021,3.383481
6986.95,3.380229
6988.878,3.37898
6990.807,3.371293
6992.735,3.36544
6994.664,3.357793
6996.592,3.347649
6998.521,3.340173
7000.449,3.331997
7002.378,3.320423
7004.307,3.314836
7006.235,3.304159
7008.163,3.291219
7010.092,3.282583
7012.021,3.273083
7013.949,3.263599
7015.877,3.254038
7017.806,3.24195
7019.734,3.240012
7021.663,3.238503
7023.591,3.228699
7025.52,3.218052
7027.448,3.218887
7029.377,3.225982
7031.305,3.235592
7033.234,3.239563
7035.162,3.235095
7037.091,3.231103
7039.02,3.236789
7040.948,3.235869
7042.876,3.230936
7044.805,3.221424
7046.733,3.206623
7048.662,3.188263
7050.59,3.167584
7052.519,3.150002
7054.447,3.127609
7056.376,3.099768
7058.304,3.074615
7060.232,3.05288
7062.161,3.048138
7064.09,3.048152
7066.019,3.063206
7067.947,3.075544
7069.875,3.101369
7071.804,3.128217
7073.732,3.155817
7075.661,3.183018
7077.589,3.215415
7079.518,3.252783
7081.446,3.2826
7083.375,3.306801
7085.303,3.329584
7087.231,3.345394
7089.16,3.360602
7091.089,3.378852
7093.018,3.399128
7094.946,3.419237
7096.874,3.433311
7098.803,3.450602
7100.731,3.471009
7102.66,3.499401
7104.588,3.533294
7106.517,3.555171
7108.445,3.576991
7110.374,3.601678
7112.302,3.624983
7114.23,3.647986
7116.159,3.677787
7118.088,3.697815
7120.016,3.712546
7121.944,3.73373
7123.873,3.747061
7125.802,3.757997
7127.73,3.766254
7129.659,3.76981
7131.587,3.771924
7133.516,3.774989
7135.444,3.763387
7137.373,3.745475
7139.301,3.729702
7141.229,3.71027
7143.158,3.689837
7145.087,3.661172
7147.015,3.62761
7148.943,3.595106
7150.872,3.550783
7152.801,3.500804
7154.729,3.443896
7156.658,3.374462
7158.586,3.309319
7160.515,3.229134
7162.443,3.129045
7164.372,3.045381
7166.3,2.965703
7168.229,2.905318
7170.157,2.864322
7172.086,2.845593
7174.014,2.847981
7175.942,2.867239
7177.871,2.896575
7179.8,2.947143
7181.729,2.994458
7183.657,3.038316
7185.585,3.084908
7187.514,3.131529
7189.442,3.189058
7191.371,3.243868
7193.299,3.300009
7195.228,3.352575
7197.156,3.410079
7199.085,3.469526
7201.013,3.530535
7202.941,3.587195
7204.87,3.643846
7206.799,3.696937
7208.727,3.759797
7210.655,3.814318
7212.584,3.868741
7214.513,3.918996
7216.441,3.972461
7218.37,4.035326
7220.298,4.092628
7222.227,4.132793
7224.155,4.193533
7226.083,4.257057
7228.012,4.307089
7229.94,4.368568
7231.869,4.436501
7233.798,4.476253
7235.726,4.523651
7237.654,4.568335
7239.583,4.622609
7241.512,4.685451
7243.44,4.732121
7245.369,4.76698
7247.297,4.81533
7249.226,4.862181
7251.154,4.922064
7253.083,4.973968
7255.011,5.016304
7256.939,5.058154
7258.868,5.107412
7260.797,5.159933
7262.725,5.211633
7264.653,5.256449
7266.582,5.311538
7268.511,5.358518
7270.439,5.404187
7272.368,5.459659
7274.296,5.50776
7276.225,5.550202
7278.153,5.599299
7280.082,5.641663
7282.01,5.689695
7283.938,5.740338
7285.867,5.791039
7287.796,5.838005
7289.724,5.883255
7291.652,5.926289
7293.581,5.981106
7295.51,6.021927
7297.438,6.072281
7299.366,6.124911
7301.295,6.153418
7303.224,6.190572
7305.152,6.249255
7307.081,6.301067
7309.009,6.343392
7310.938,6.40397
7312.866,6.434172
7314.794,6.468694
7316.723,6.505691
7318.651,6.537495
7320.58,6.579805
7322.509,6.631303
7324.437,6.657971
7326.365,6.691048
7328.294,6.722529
7330.223,6.739949
7332.151,6.763674
7334.08,6.784853
7336.008,6.805355
7337.937,6.834627
7339.865,6.87232
7341.793,6.880629
7343.722,6.897644
7345.65,6.906281
7347.579,6.932885
7349.508,6.950151
7351.436,6.962035
7353.364,6.988966
7355.293,7.026152
7357.222,7.033988
7359.15,7.056912
7361.079,7.082976
7363.007,7.105903
7364.936,7.12527
7366.864,7.157442
7368.792,7.187907
7370.721,7.197633
7372.649,7.209155
7374.578,7.249297
7376.507,7.267115
7378.435,7.278127
7380.363,7.305877
7382.292,7.325294
7384.221,7.336973
7386.149,7.346197
7388.077,7.352821
7390.006,7.373378
7391.935,7.388457
7393.863,7.394978
7395.792,7.398463
7397.72,7.413332
7399.648,7.422893
7401.577,7.429851
7403.505,7.438828
7405.434,7.449859
7407.362,7.453172
7409.291,7.462591
7411.22,7.469216
7413.148,7.474291
7415.076,7.478628
7417.005,7.487154
7418.934,7.487032
7420.862,7.492552
7422.791,7.497396
7424.719,7.509051
7426.647,7.514851
7428.576,7.515929
7430.504,7.520232
7432.433,7.518052
7434.361,7.519287
7436.29,7.531594
7438.219,7.530173
7440.147,7.535013
7442.075,7.542975
7444.004,7.543641
7445.933,7.548021
7447.861,7.554575
7449.789,7.559583
7451.718,7.564769
7453.646,7.565899
7455.575,7.571521
7457.503,7.570947
7459.432,7.566201
7461.36,7.568207
7463.289,7.578442
7465.218,7.578313
7467.146,7.582192
7469.074,7.583872
7471.003,7.581716
7472.932,7.584045
7474.86,7.583079
7476.788,7.58623
7478.717,7.586723
7480.646,7.58296
7482.574,7.586777
7484.502,7.586593
7486.431,7.586124
7488.359,7.58181
7490.288,7.585685
7492.216,7.587492
7494.145,7.586054
7496.073,7.590242
7498.002,7.584613
7499.931,7.578099
7501.859,7.579025
7503.787,7.574406
7505.716,7.575897
7507.645,7.573992
7509.573,7.580336
7511.501,7.579
7513.43,7.581476
7515.358,7.580115
7517.287,7.574555
7519.215,7.571167
7521.144,7.571445
7523.072,7.573193
7525.001,7.572775
7526.93,7.563462
7528.858,7.561892
7530.786,7.568602
7532.715,7.565421
7534.644,7.555188
7536.572,7.551049
7538.5,7.551038
7540.429,7.549583
7542.357,7.547355
7544.286,7.54721
7546.214,7.544744
7548.143,7.541504
7550.071,7.540734
7552.0,7.53924
7553.928,7.538979
7555.857,7.533868
7557.785,7.526452
7559.714,7.520459
7561.643,7.519316
7563.571,7.51873
7565.499,7.514845
7567.428,7.503228
7569.356,7.500663
7571.285,7.501386
7573.213,7.498971
7575.142,7.493362
7577.07,7.484469
7578.999,7.481448
7580.927,7.476976
7582.855,7.478681
7584.784,7.477293
7586.713,7.47336
7588.642,7.469412
7590.57,7.468005
7592.498,7.461634
7594.427,7.452125
7596.355,7.442497
7598.284,7.436579
7600.212,7.432755
7602.141,7.435653
7604.069,7.428291
7605.998,7.419955
7607.926,7.420029
7609.854,7.413223
7611.783,7.407366
7613.712,7.399716
7615.641,7.392564
7617.569,7.386263
7619.497,7.378719
7621.426,7.374549
7623.354,7.36719
7625.283,7.356731
7627.211,7.349524
7629.14,7.344096
7631.068,7.340104
7632.997,7.332676
7634.925,7.327915
7636.854,7.317828
7638.782,7.306601
7640.711,7.297455
7642.639,7.292037
7644.568,7.288598
7646.496,7.281741
7648.425,7.272283
7650.354,7.268522
7652.282,7.27221
7654.21,7.26172
7656.139,7.251274
7658.067,7.249125
7659.996,7.241189
7661.924,7.232544
7663.853,7.22686
7665.781,7.218715
7667.71,7.216532
7669.638,7.206477
7671.566,7.195397
7673.495,7.198879
7675.424,7.193349
7677.353,7.184053
7679.281,7.181388
7681.209,7.179789
7683.138,7.17852
7685.066,7.173853
7686.995,7.163638
7688.923,7.163187
7690.852,7.164483
7692.78,7.156542
7694.709,7.148255
7696.637,7.152584
7698.565,7.148728
7700.494,7.142027
7702.423,7.130502
7704.352,7.119098
7706.28,7.120567
7708.208,7.115855
7710.137,7.10924
7712.065,7.109255
7713.994,7.112487
7715.922,7.104598
7717.851,7.096437
7719.779,7.087758
7721.708,7.080253
7723.636,7.080663
7725.564,7.081183
7727.493,7.068489
7729.422,7.058655
7731.35,7.054613
7733.279,7.051229
7735.207,7.047134
7737.136,7.037702
7739.064,7.032275
7740.993,7.034631
7742.921,7.035358
7744.85,7.025487
7746.778,7.021084
7748.707,7.014885
7750.635,7.006613
7752.563,6.999863
7754.492,6.996068
7756.421,7.000301
7758.349,6.993515
7760.277,6.97934
7762.206,6.973804
7764.135,6.968735
7766.063,6.965637
7767.992,6.957661
7769.92,6.949584
7771.849,6.948005
7773.777,6.944575
7775.706,6.941751
7777.634,6.933098
7779.563,6.92539
7781.491,6.926235
7783.42,6.924263
7785.348,6.917737
7787.276,6.909459
7789.205,6.907251
7791.134,6.903231
7793.063,6.898732
7794.991,6.896756
7796.919,6.892864
7798.848,6.884277
7800.776,6.881083
7802.705,6.870607
7804.633,6.861173
7806.562,6.859705
7808.49,6.857513
7810.419,6.851108
7812.347,6.842461
7814.275,6.83849
7816.204,6.837936
7818.133,6.833509
7820.061,6.819851
7821.989,6.812759
7823.918,6.815683
7825.847,6.80612
7827.775,6.783189
7829.704,6.779816
7831.632,6.774538
7833.561,6.766616
7835.489,6.757087
7837.417,6.755703
7839.346,6.754758
7841.274,6.749181
7843.203,6.736371
7845.132,6.724441
7847.06,6.717516
7848.988,6.707449
7850.917,6.697099
7852.846,6.690372
7854.774,6.684019
7856.703,6.670233
7858.631,6.660522
7860.56,6.657049
7862.488,6.649616
7864.417,6.6302
7866.345,6.627495
7868.273,6.62145
7870.202,6.605677
7872.131,6.596175
7874.059,6.588814
7875.987,6.569509
7877.916,6.557537
7879.845,6.551216
7881.773,6.539265
7883.702,6.522137
7885.63,6.512164
7887.559,6.504356
7889.487,6.493481
7891.416,6.48029
7893.344,6.46685
7895.272,6.45409
7897.201,6.452269
7899.13,6.4693
7901.058,6.434898
7902.986,6.403416
7904.915,6.391855
7906.844,6.375637
7908.772,6.358738
7910.7,6.348337
7912.629,6.340831
7914.558,6.329286
7916.486,6.316426
7918.415,6.30101
7920.343,6.286753
7922.271,6.271426
7924.2,6.26224
7926.128,6.249732
7928.057,6.223557
7929.985,6.211744
7931.914,6.198812
7933.843,6.18189
7935.771,6.168261
7937.699,6.14538
7939.628,6.130178
7941.557,6.120132
7943.485,6.10356
7945.414,6.083037
7947.342,6.05522
7949.271,6.043047
7951.199,6.031577
7953.127,6.013753
7955.056,6.001529
7956.984,5.979873
7958.913,5.955393
7960.842,5.934108
7962.77,5.914145
7964.698,5.900589
7966.627,5.893031
7968.556,5.871413
7970.484,5.841067
7972.413,5.823384
7974.341,5.808744
7976.27,5.790648
7978.198,5.761786
7980.126,5.74681
7982.055,5.736549
7983.983,5.712578
7985.912,5.687375
7987.841,5.670931
7989.769,5.644251
7991.697,5.620963
7993.626,5.602423
7995.555,5.586271
7997.483,5.567752
7999.411,5.544871
8001.34,5.511115
8003.269,5.481112
8005.197,5.462695
8007.125,5.454446
8009.054,5.440886
8010.982,5.408279
8012.911,5.379508
8014.839,5.356027
8016.768,5.33687
8018.696,5.306723
8020.625,5.281373
8022.554,5.257679
8024.482,5.236656
8026.41,5.214453
8028.339,5.187054
8030.268,5.15497
8032.196,5.124571
8034.125,5.102904
8036.053,5.079951
8037.981,5.057121
8039.91,5.027521
8041.838,4.996796
8043.767,4.981332
8045.695,4.958233
8047.624,4.917263
8049.553,4.894494
8051.481,4.874288
8053.409,4.841651
8055.338,4.80623
8057.267,4.773859
8059.195,4.74983
8061.124,4.732358
8063.052,4.697796
8064.98,4.668192
8066.909,4.650065
8068.837,4.625216
8070.766,4.589434
8072.694,4.552646
8074.623,4.525967
8076.552,4.502022
8078.48,4.472317
8080.408,4.43857
8082.337,4.410528
8084.266,4.376113
8086.194,4.337107
8088.122,4.309816
8090.051,4.28664
8091.979,4.263062
8093.908,4.233515
8095.836,4.194073
8097.765,4.162907
8099.693,4.133317
8101.622,4.09428
8103.551,4.068872
8105.479,4.037824
8107.407,4.005077
8109.336,3.97368
8111.265,3.936373
8113.192,3.911366
8115.121,3.873231
8117.05,3.837232
8118.979,3.800874
8120.907,3.774615
8122.835,3.748937
8124.764,3.71986
8126.692,3.679979
8128.621,3.636244
8130.55,3.600012
8132.478,3.568893
8134.406,3.536723
8136.335,3.504597
8138.264,3.457848
8140.191,3.424696
8142.12,3.399693
8144.049,3.370792
8145.978,3.337395
8147.906,3.302466
8149.834,3.271169
8151.763,3.233995
8153.691,3.204959
8155.62,3.178892
8157.548,3.147353
8159.477,3.122811
8161.405,3.087934
8163.334,3.050356
8165.263,3.023336
8167.19,2.992219
8169.119,2.964626
8171.048,2.943282
8172.977,2.915421
8174.905,2.885329
8176.833,2.864023
8178.762,2.840804
8180.69,2.81266
8182.619,2.792968
8184.547,2.7808
8186.476,2.750359
8188.404,2.725544
8190.333,2.717668
8192.262,2.701685
8194.189,2.676183
8196.118,2.663043
8198.047,2.657795
8199.976,2.6423
8201.903,2.629323
8203.832,2.616503
8205.761,2.605971
8207.689,2.592723
8209.618,2.579645
8211.546,2.57675
8213.475,2.576099
8215.403,2.572739
8217.332,2.565329
8219.261,2.563191
8221.188,2.562371
8223.117,2.5556
8225.046,2.555279
8226.975,2.557383
8228.902,2.554496
8230.831,2.556733
8232.76,2.555147
8234.688,2.556754
8236.617,2.563583
8238.545,2.571469
8240.474,2.572049
8242.402,2.571395
8244.331,2.570845
8246.259,2.570225
8248.188,2.58373
8250.116,2.594223
8252.045,2.595904
8253.974,2.591002
8255.901,2.591555
8257.83,2.594233
8259.759,2.608356
8261.688,2.619689
8263.616,2.618294
8265.544,2.626498
8267.473,2.632486
8269.401,2.6426
8271.33,2.654793
8273.258,2.654306
8275.187,2.67026
8277.115,2.694692
8279.044,2.695142
8280.973,2.694856
8282.9,2.719485
8284.829,2.741009
8286.758,2.749563
8288.687,2.762435
8290.614,2.784687
8292.543,2.808866
8294.472,2.823349
8296.4,2.837333
8298.329,2.857489
8300.257,2.875482
8302.186,2.88322
8304.114,2.898696
8306.043,2.919018
8307.972,2.931607
8309.899,2.956694
8311.828,2.977658
8313.757,3.002752
8315.686,3.021322
8317.613,3.034102
8319.542,3.043214
8321.471,3.055948
8323.399,3.079098
8325.328,3.109869
8327.256,3.126123
8329.185,3.137907
8331.113,3.168917
8333.042,3.194861
8334.97,3.215653
8336.898,3.235928
8338.827,3.254766
8340.756,3.281292
8342.685,3.301828
8344.612,3.333749
8346.541,3.362117
8348.47,3.389096
8350.398,3.411306
8352.327,3.431866
8354.255,3.461703
8356.184,3.486034
8358.112,3.508819
8360.041,3.533892
8361.969,3.565875
8363.897,3.586885
8365.826,3.604812
8367.755,3.629045
8369.684,3.658967
8371.611,3.685126
8373.54,3.713108
8375.469,3.733974
8377.397,3.755467
8379.325,3.783314
8381.254,3.808728
8383.183,3.824676
8385.111,3.860196
8387.04,3.881727
8388.968,3.896596
8390.896,3.921122
8392.825,3.937797
8394.754,3.952208
8396.683,3.964721
8398.61,3.969107
8400.539,3.973553
8402.468,3.990181
8404.396,3.999335
8406.324,4.011942
8408.253,4.013918
8410.182,4.013103
8412.11,4.022754
8414.039,4.035884
8415.967,4.043746
8417.896,4.042965
8419.824,4.05415
8421.753,4.066708
8423.681,4.064187
8425.609,4.074374
8427.538,4.092795
8429.467,4.107352
8431.396,4.133019
8433.323,4.154123
8435.252,4.174135
8437.181,4.200907
8439.109,4.231956
8441.037,4.265163
8442.966,4.296301
8444.895,4.328066
8446.823,4.368598
8448.752,4.415049
8450.68,4.460799
8452.608,4.489208
8454.537,4.505759
8456.466,4.541631
8458.395,4.570979
8460.322,4.604811
8462.251,4.625185
8464.18,4.646432
8466.108,4.677506
8468.036,4.714115
8469.965,4.74296
8471.894,4.763161
8473.822,4.776309
8475.751,4.807211
8477.679,4.849542
8479.607,4.875694
8481.536,4.906886
8483.465,4.933363
8485.393,4.962309
8487.321,4.988231
8489.25,5.021237
8491.179,5.055737
8493.107,5.079253
8495.035,5.10018
8496.964,5.124712
8498.893,5.136707
8500.821,5.149575
8502.75,5.170066
8504.678,5.190951
8506.606,5.212564
8508.535,5.223762
8510.464,5.230414
8512.392,5.246652
8514.32,5.264048
8516.249,5.269765
8518.178,5.2872
8520.106,5.300305
8522.034,5.318403
8523.963,5.333505
8525.892,5.337818
8527.82,5.352116
8529.748,5.367743
8531.677,5.362447
8533.605,5.362954
8535.534,5.375705
8537.463,5.380557
8539.391,5.357644
8541.319,5.346447
8543.248,5.344807
8545.177,5.331592
8547.105,5.31227
8549.033,5.288979
8550.962,5.260342
8552.891,5.231746
8554.819,5.209806
8556.747,5.179118
8558.676,5.148163
8560.604,5.134798
8562.533,5.118935
8564.462,5.108953
8566.39,5.132037
8568.318,5.162022
8570.247,5.185168
8572.176,5.213637
8574.104,5.250777
8576.032,5.280756
8577.961,5.308614
8579.89,5.355219
8581.818,5.394019
8583.746,5.423422
8585.675,5.457065
8587.604,5.512327
8589.532,5.558804
8591.461,5.608795
8593.389,5.661039
8595.317,5.711477
8597.246,5.754632
8599.175,5.800758
8601.103,5.847202
8603.031,5.899993
8604.96,5.94667
8606.889,6.003001
8608.817,6.05591
8610.745,6.10334
8612.674,6.151568
8614.603,6.192555
8616.531,6.23501
8618.459,6.284287
8620.388,6.335208
8622.316,6.380651
8624.245,6.412564
8626.174,6.459795
8628.102,6.509457
8630.03,6.538792
8631.959,6.568471
8633.888,6.61904
8635.816,6.660232
8637.744,6.688919
8639.673,6.715775
8641.602,6.757394
8643.53,6.792192
8645.458,6.816244
8647.387,6.852138
8649.315,6.893058
8651.244,6.916008
8653.173,6.933779
8655.101,6.963254
8657.029,7.003899
8658.958,7.026833
8660.887,7.051365
8662.814,7.074944
8664.743,7.09281
8666.672,7.122816
8668.601,7.134728
8670.529,7.145067
8672.457,7.17118
8674.386,7.202785
8676.314,7.229775
8678.243,7.244019
8680.172,7.25887
8682.1,7.277466
8684.028,7.297655
8685.957,7.31495
8687.886,7.342115
8689.813,7.369019
8691.742,7.387845
8693.671,7.407653
8695.6,7.444726
8697.528,7.47407
8699.456,7.492504
8701.385,7.518342
8703.313,7.54667
8705.242,7.570034
8707.17,7.594737
8709.099,7.61755
8711.027,7.646628
8712.956,7.679232
8714.885,7.705687
8716.813,7.725134
8718.741,7.751223
8720.67,7.773909
8722.599,7.795568
8724.527,7.830739
8726.455,7.857086
8728.384,7.879727
8730.313,7.911667
8732.241,7.933809
8734.169,7.956387
8736.098,7.978613
8738.026,8.00976
8739.955,8.043236
8741.884,8.053842
8743.812,8.068241
8745.74,8.090665
8747.669,8.117953
8749.598,8.140634
8751.525,8.15283
8753.454,8.173776
8755.383,8.202881
8757.312,8.224235
8759.24,8.232958
8761.168,8.255892
8763.097,8.274865
8765.025,8.294293
8766.954,8.306974
8768.882,8.320438
8770.811,8.335049
8772.739,8.345997
8774.668,8.359137
8776.597,8.380921
8778.524,8.39885
8780.453,8.417249
8782.382,8.43461
8784.311,8.440029
8786.239,8.446637
8788.167,8.464825
8790.096,8.489362
8792.024,8.493582
8793.953,8.489059
8795.881,8.49886
8797.81,8.515052
8799.738,8.527385
8801.667,8.529952
8803.596,8.541234
8805.523,8.565833
8807.452,8.581977
8809.381,8.590837
8811.31,8.605029
8813.237,8.61134
8815.166,8.602824
8817.095,8.600078
8819.023,8.599956
8820.952,8.604567
8822.88,8.624276
8824.809,8.637153
8826.737,8.638755
8828.666,8.63822
8830.595,8.647552
8832.522,8.661075
8834.451,8.658093
8836.38,8.648832
8838.309,8.660081
8840.236,8.669324
8842.165,8.670745
8844.094,8.667988
8846.022,8.678981
8847.951,8.687863
8849.879,8.683916
8851.808,8.689294
8853.736,8.693541
8855.665,8.701289
8857.593,8.698173
8859.521,8.699896
8861.45,8.708722
8863.379,8.709933
8865.308,8.725245
8867.235,8.727036
8869.164,8.728761
8871.093,8.731267
8873.021,8.736736
8874.95,8.730879
8876.878,8.728431
8878.807,8.727678
8880.735,8.72822
8882.664,8.728343
8884.592,8.738862
8886.521,8.732793
8888.449,8.724538
8890.378,8.727042
8892.307,8.740217
8894.234,8.735435
8896.163,8.73087
8898.092,8.74187
8900.021,8.750212
8901.948,8.739392
8903.877,8.732743
8905.806,8.729387
8907.734,8.736326
8909.663,8.738702
8911.591,8.731544
8913.52,8.739202
8915.448,8.742947
8917.377,8.748178
8919.306,8.743159
8921.233,8.742287
8923.162,8.739929
8925.091,8.735237
8927.02,8.73538
8928.947,8.738323
8930.876,8.72965
8932.805,8.72225
8934.733,8.716992
8936.662,8.736438
8938.59,8.73456
8940.519,8.725342
8942.447,8.712514
8944.376,8.712535
8946.304,8.734403
8948.232,8.745428
8950.161,8.743908
8952.09,8.734799
8954.019,8.732857
8955.946,8.729465
8957.875,8.72237
8959.804,8.725253
8961.732,8.724217
8963.661,8.731166
8965.589,8.738609
8967.518,8.733509
8969.446,8.726274
8971.375,8.728043
8973.303,8.732143
8975.231,8.739985
8977.16,8.752035
8979.089,8.754906
8981.018,8.744165
8982.945,8.746159
8984.874,8.752864
8986.803,8.752507
8988.731,8.755885
8990.659,8.748805
8992.588,8.7604
8994.517,8.766609
8996.445,8.765236
8998.374,8.756462
9000.302,8.760049
9002.23,8.775531
9004.159,8.771111
9006.088,8.75948
9008.017,8.759091
9009.944,8.764091
9011.873,8.765795
9013.802,8.768904
9015.73,8.76896
9017.658,8.773956
9019.587,8.782214
9021.516,8.789004
9023.444,8.79398
9025.373,8.786452
9027.301,8.778282
9029.229,8.792144
9031.158,8.799385
9033.087,8.801557
9035.015,8.798939
9036.943,8.79835
9038.872,8.793822
9040.801,8.788792
9042.729,8.808513
9044.657,8.81769
9046.586,8.820065
9048.515,8.830137
9050.443,8.818194
9052.372,8.80919
9054.3,8.812299
9056.229,8.805646
9058.157,8.818777
9060.086,8.830907
9062.014,8.827908
9063.942,8.826418
9065.871,8.812732
9067.8,8.807192
9069.729,8.818482
9071.656,8.816813
9073.585,8.807853
9075.514,8.821945
9077.442,8.830593
9079.37,8.830504
9081.299,8.836183
9083.228,8.837234
9085.156,8.833683
9087.085,8.836917
9089.013,8.842354
9090.941,8.848126
9092.87,8.832923
9094.799,8.82908
9096.727,8.838543
9098.655,8.834429
9100.584,8.840312
9102.513,8.849122
9104.441,8.851954
9106.369,8.844041
9108.298,8.836248
9110.227,8.826554
9112.155,8.829711
9114.084,8.823882
9116.012,8.818124
9117.94,8.819112
9119.869,8.831964
9121.798,8.829847
9123.726,8.831061
9125.654,8.838662
9127.583,8.840383
9129.512,8.837027
9131.44,8.83416
9133.368,8.829807
9135.297,8.838873
9137.226,8.839705
9139.154,8.832386
9141.082,8.827531
9143.011,8.823355
9144.939,8.823731
9146.868,8.824248
9148.797,8.830375
9150.725,8.829578
9152.653,8.832514
9154.582,8.829834
9156.511,8.834713
9158.439,8.848455
9160.367,8.829105
9162.296,8.805569
9164.225,8.804709
9166.153,8.816343
9168.081,8.824002
9170.01,8.815804
9171.938,8.812832
9173.867,8.812803
9175.796,8.812467
9177.724,8.824019
9179.652,8.817473
9181.581,8.804466
9183.51,8.79324
9185.438,8.791809
9187.366,8.79509
9189.295,8.78656
9191.224,8.782527
9193.152,8.788363
9195.08,8.772824
9197.009,8.764688
9198.938,8.774005
9200.866,8.785701
9202.795,8.789418
9204.723,8.781261
9206.651,8.765941
9208.58,8.771744
9210.509,8.78154
9212.437,8.783285
9214.365,8.777253
9216.294,8.769618
9218.223,8.755528
9220.151,8.756186
9222.079,8.76274
9224.008,8.760607
9225.937,8.75385
9227.865,8.748631
9229.793,8.745107
9231.722,8.751093
9233.65,8.769497
9235.579,8.749957
9237.508,8.731702
9239.436,8.728678
9241.364,8.736647
9243.293,8.742018
9245.222,8.749331
9247.15,8.76007
9249.078,8.754804
9251.007,8.749086
9252.936,8.747131
9254.864,8.730816
9256.792,8.729598
9258.721,8.733855
9260.649,8.722444
9262.578,8.710674
9264.507,8.725355
9266.435,8.739965
9268.363,8.725423
9270.292,8.727167
9272.221,8.734105
9274.148,8.726825
9276.077,8.716265
9278.006,8.725486
9279.935,8.720565
9281.863,8.718996
9283.791,8.715241
9285.72,8.706386
9287.648,8.689933
9289.577,8.69193
9291.506,8.718347
9293.434,8.718751
9295.362,8.685757
9297.291,8.687903
9299.22,8.705791
9301.147,8.711058
9303.076,8.702876
9305.005,8.701361
9306.934,8.709174
9308.862,8.711925
9310.79,8.701055
9312.719,8.690369
9314.647,8.688518
9316.576,8.69932
9318.504,8.700946
9320.433,8.704065
9322.361,8.712743
9324.29,8.6967
9326.219,8.691586
9328.146,8.699801
9330.075,8.698059
9332.004,8.693108
9333.933,8.695974
9335.861,8.67794
9337.789,8.685514
9339.718,8.703538
9341.646,8.692699
9343.575,8.690281
9345.503,8.70855
9347.432,8.724094
9349.36,8.701171
9351.289,8.693274
9353.218,8.699634
9355.146,8.689465
9357.074,8.669941
9359.003,8.686231
9360.932,8.690611
9362.859,8.671121
9364.788,8.651828
9366.717,8.650599
9368.646,8.671915
9370.574,8.669028
9372.502,8.663805
9374.431,8.665435
9376.359,8.644361
9378.288,8.648443
9380.217,8.669459
9382.145,8.676126
9384.073,8.650743
9386.002,8.647835
9387.931,8.634818
9389.858,8.634752
9391.787,8.636337
9393.716,8.637114
9395.645,8.619517
9397.573,8.609096
9399.501,8.603924
9401.43,8.61337
9403.358,8.610948
9405.287,8.611975
9407.215,8.609279
9409.144,8.596145
9411.072,8.602205
9413.001,8.621481
9414.93,8.603416
9416.857,8.588227
9418.786,8.583083
9420.715,8.580547
9422.644,8.580147
9424.571,8.566044
9426.5,8.562905
9428.429,8.569982
9430.357,8.56351
9432.286,8.546988
9434.214,8.538686
9436.143,8.541791
9438.071,8.549157
9440.0,8.541
9441.929,8.516742
9443.856,8.509146
9445.785,8.514379
9447.714,8.505305
9449.643,8.504288
9451.57,8.498975
9453.499,8.496215
9455.428,8.500033
9457.356,8.491289
9459.285,8.482477
9461.213,8.471813
9463.142,8.477588
9465.07,8.467335
9466.999,8.469622
9468.927,8.461112
9470.855,8.443725
9472.784,8.435425
9474.713,8.43222
9476.642,8.429543
9478.569,8.424911
9480.498,8.436872
9482.427,8.445821
9484.355,8.432611
9486.284,8.43786
9488.212,8.443092
9490.141,8.427988
9492.069,8.406288
9493.998,8.39704
9495.926,8.412066
9497.854,8.423651
9499.783,8.410316
9501.712,8.40433
9503.641,8.413027
9505.568,8.405371
9507.497,8.389001
9509.426,8.395915
9511.354,8.407345
9513.282,8.407938
9515.211,8.400216
9517.14,8.398346
9519.068,8.397738
9520.997,8.388408
9522.925,8.383848
9524.854,8.401351
9526.782,8.383086
9528.711,8.355726
9530.64,8.369185
9532.567,8.377989
9534.496,8.366604
9536.425,8.357124
9538.354,8.360419
9540.281,8.339831
9542.21,8.341334
9544.139,8.350905
9546.067,8.337674
9547.996,8.330646
9549.924,8.339491
9551.853,8.334803
9553.781,8.328228
9555.71,8.313041
9557.638,8.307938
9559.566,8.30272
9561.495,8.30454
9563.424,8.296616
9565.353,8.275286
9567.28,8.277927
9569.209,8.287764
9571.138,8.291449
9573.066,8.312043
9574.995,8.317799
9576.923,8.29437
9578.852,8.279108
9580.78,8.277773
9582.709,8.256758
9584.637,8.267902
9586.565,8.290008
9588.494,8.266332
9590.423,8.250839
9592.352,8.262446
9594.279,8.260803
9596.208,8.259746
9598.137,8.260425
9600.065,8.257346
9601.993,8.278207
9603.922,8.273621
9605.851,8.263181
9607.779,8.283828
9609.708,8.301284
9611.636,8.287327
9613.564,8.292889
9615.493,8.306061
9617.422,8.31515
9619.351,8.311184
9621.278,8.307139
9623.207,8.300309
9625.136,8.306192
9627.064,8.314353
9628.992,8.309499
9630.921,8.327588
9632.85,8.339104
9634.778,8.348487
9636.707,8.362053
9638.635,8.361838
9640.563,8.37702
9642.492,8.397757
9644.421,8.391866
9646.349,8.39616
9648.277,8.398786
9650.206,8.417592
9652.135,8.424069
9654.063,8.422491
9655.991,8.435096
9657.92,8.439856
9659.849,8.455994
9661.777,8.469021
9663.706,8.473042
9665.634,8.45234
9667.563,8.465287
9669.491,8.474989
9671.42,8.486811
9673.348,8.494648
9675.276,8.510145
9677.205,8.521162
9679.134,8.522707
9681.063,8.509492
9682.99,8.521397
9684.919,8.529149
9686.848,8.541707
9688.776,8.570797
9690.704,8.580754
9692.633,8.571339
9694.562,8.580013
9696.49,8.59117
9698.419,8.583133
9700.347,8.6007
9702.275,8.600724
9704.204,8.605745
9706.133,8.610468
9708.062,8.624461
9709.989,8.626903
9711.918,8.632627
9713.847,8.650793
9715.775,8.674578
9717.703,8.691339
9719.632,8.692883
9721.561,8.687476
9723.489,8.697612
9725.418,8.706544
9727.346,8.699392
9729.274,8.72275
9731.203,8.72647
9733.132,8.722095
9735.06,8.725136
9736.988,8.740246
9738.917,8.759399
9740.846,8.770392
9742.774,8.785123
9744.702,8.783938
9746.631,8.768141
9748.56,8.783829
9750.488,8.820432
9752.416,8.831257
9754.345,8.819397
9756.273,8.818962
9758.202,8.821881
9760.131,8.813129
9762.059,8.80818
9763.987,8.819946
9765.916,8.826613
9767.845,8.824459
9769.773,8.82487
9771.701,8.823576
9773.63,8.816877
9775.559,8.838347
9777.487,8.856076
9779.415,8.857222
9781.344,8.867923
9783.272,8.848907
9785.201,8.830054
9787.13,8.857078
9789.058,8.872917
9790.986,8.876912
9792.915,8.878044
9794.844,8.869608
9796.771,8.872201
9798.7,8.86195
9800.629,8.868665
9802.558,8.882775
9804.486,8.897703
9806.414,8.880429
9808.343,8.853884
9810.271,8.869009
9812.2,8.856036
9814.129,8.849415
9816.057,8.875487
9817.985,8.88066
9819.914,8.877782
9821.843,8.885456
9823.771,8.872204
9825.699,8.858892
9827.628,8.860279
9829.557,8.86287
9831.485,8.867654
9833.413,8.886755
9835.342,8.915595
9837.271,8.930161
9839.199,8.903821
9841.127,8.889822
9843.056,8.918677
9844.984,8.944231
9846.913,8.938304
9848.842,8.931227
9850.77,8.964713
9852.698,8.974211
9854.627,8.953922
9856.556,8.947059
9858.484,8.964392
9860.412,8.982998
9862.341,9.005443
9864.27,9.018715
9866.198,9.024869
9868.126,9.009183
9870.055,9.001619
9871.983,9.024636
9873.912,9.000113
9875.841,9.010875
9877.769,9.051155
9879.697,9.054179
9881.626,9.065242
9883.555,9.074901
9885.482,9.086954
9887.411,9.103228
9889.34,9.10208
9891.269,9.093831
9893.197,9.116563
9895.125,9.129431
9897.054,9.128625
9898.982,9.120026
9900.911,9.132357
9902.84,9.149511
9904.768,9.153099
9906.696,9.163388
9908.625,9.156947
9910.554,9.165493
9912.481,9.172234
9914.41,9.202283
9916.339,9.230627
9918.268,9.213717
9920.196,9.18741
9922.124,9.20575
9924.053,9.20252
9925.981,9.206942
9927.91,9.228626
9929.838,9.222547
9931.767,9.215029
9933.695,9.225531
9935.624,9.242664
9937.553,9.277669
9939.48,9.295459
9941.409,9.289509
9943.338,9.271873
9945.267,9.290334
9947.195,9.324429
9949.123,9.303306
9951.052,9.300613
9952.98,9.315019
9954.909,9.306984
9956.837,9.343283
9958.766,9.349005
9960.694,9.337831
9962.623,9.346436
9964.552,9.349374
9966.479,9.358275
9968.408,9.379408
9970.337,9.395677
9972.266,9.379233
9974.193,9.361402
9976.122,9.373019
9978.051,9.369191
9979.979,9.366081
9981.908,9.376202
9983.836,9.406872
9985.765,9.39844
9987.693,9.39369
9989.622,9.399053
9991.551,9.420379
9993.479,9.438866
9995.407,9.434574
9997.336,9.447253
9999.265,9.43898
10001.19,9.411663
10003.12,9.411776
10005.05,9.417909
10006.98,9.41746
10008.91,9.42595
10010.83,9.446954
10012.76,9.469357
10014.69,9.477136
10016.62,9.455359
10018.55,9.439034
10020.48,9.448645
10022.41,9.458507
10024.33,9.456201
10026.26,9.469514
10028.19,9.486772
10030.12,9.47913
10032.05,9.477661
10033.98,9.505982
10035.91,9.516636
10037.83,9.500792
10039.76,9.501375
10041.69,9.538118
10043.62,9.562249
10045.55,9.563362
10047.48,9.541109
10049.41,9.544953
10051.33,9.559706
10053.26,9.566434
10055.19,9.580003
10057.12,9.582309
10059.05,9.574559
10060.98,9.566339
10062.9,9.558614
10064.83,9.541469
10066.76,9.552137
10068.69,9.558789
10070.62,9.565783
10072.55,9.60229
10074.48,9.581633
10076.4,9.558867
10078.33,9.580124
10080.26,9.589262
10082.19,9.592442
10084.12,9.580514
10086.05,9.587368
10087.98,9.610526
10089.9,9.599503
10091.83,9.587078
10093.76,9.603458
10095.69,9.603321
10097.62,9.603824
10099.55,9.610583
10101.47,9.628156
10103.4,9.61337
10105.33,9.595866
10107.26,9.603374
10109.19,9.619799
10111.12,9.610468
10113.05,9.607634
10114.97,9.591331
10116.9,9.619763
10118.83,9.62316
10120.76,9.608458
10122.69,9.605925
10124.62,9.630793
10126.54,9.646854
10128.47,9.638548
10130.4,9.640375
10132.33,9.62974
10134.26,9.638553
10136.19,9.634278
10138.12,9.664789
10140.04,9.667872
10141.97,9.635355
10143.9,9.633754
10145.83,9.657116
10147.76,9.623737
10149.69,9.616686
10151.62,9.655949
10153.54,9.666475
10155.47,9.649258
10157.4,9.659145
10159.33,9.659508
10161.26,9.657227
10163.19,9.665444
10165.12,9.700985
10167.04,9.700457
10168.97,9.689866
10170.9,9.681495
10172.83,9.676203
10174.76,9.686455
10176.69,9.684731
10178.61,9.65665
10180.54,9.645357
10182.47,9.688437
10184.4,9.671029
10186.33,9.652742
10188.26,9.668873
10190.19,9.671984
10192.11,9.648726
10194.04,9.663152
10195.97,9.681721
10197.9,9.675691
10199.83,9.660205
10201.76,9.692836
10203.69,9.69959
10205.61,9.689016
10207.54,9.702861
10209.47,9.705613
10211.4,9.709989
10213.33,9.695426
10215.26,9.683696
10217.18,9.697679
10219.11,9.696503
10221.04,9.724182
10222.97,9.692371
10224.9,9.698412
10226.83,9.709817
10228.76,9.705225
10230.68,9.657359
10232.61,9.646757
10234.54,9.653607
10236.47,9.676386
10238.4,9.676945
10240.33,9.672388
10242.25,9.670528
10244.18,9.659193
10246.11,9.653234
10248.04,9.65616
10249.97,9.674643
10251.9,9.692647
10253.83,9.69751
10255.75,9.678851
10257.68,9.656767
10259.61,9.656858
10261.54,9.663198
10263.47,9.691834
10265.4,9.696806
10267.33,9.705422
10269.25,9.715386
10271.18,9.698794
10273.11,9.69252
10275.04,9.712104
10276.97,9.720656
10278.9,9.69556
10280.83,9.69077
10282.75,9.676632
10284.68,9.692035
10286.61,9.702824
10288.54,9.680644
10290.47,9.684495
10292.4,9.672428
10294.32,9.65877
10296.25,9.66553
10298.18,9.679608
10300.11,9.711755
10302.04,9.711252
10303.97,9.685706
10305.9,9.690852
10307.82,9.685889
10309.75,9.639684
10311.68,9.644789
10313.61,9.651922
10315.54,9.657533
10317.47,9.630302
10319.4,9.60908
10321.32,9.634738
10323.25,9.659759
10325.18,9.665082
10327.11,9.637038
10329.04,9.668263
10330.97,9.66268
10332.89,9.648012
10334.82,9.641732
10336.75,9.642122
10338.68,9.661766
10340.61,9.667386
10342.54,9.639163
10344.47,9.661485
10346.39,9.665726
10348.32,9.672954
10350.25,9.661888
10352.18,9.645183
10354.11,9.622528
10356.04,9.641574
10357.96,9.659765
10359.89,9.657725
10361.82,9.635677
10363.75,9.660336
10365.68,9.682364
10367.61,9.669896
10369.54,9.631998
10371.46,9.641223
10373.39,9.671046
10375.32,9.651889
10377.25,9.641097
10379.18,9.651138
10381.11,9.652046
10383.04,9.640461
10384.96,9.631044
10386.89,9.639319
10388.82,9.654728
10390.75,9.620663
10392.68,9.584168
10394.61,9.616467
10396.54,9.640053
10398.46,9.613736
10400.39,9.566813
10402.32,9.619866
10404.25,9.636109
10406.18,9.646828
10408.11,9.632052
10410.03,9.604766
10411.96,9.603859
10413.89,9.633596
10415.82,9.618539
10417.75,9.630915
10419.68,9.646762
10421.61,9.627048
10423.53,9.603585
10425.46,9.625662
10427.39,9.625368
10429.32,9.5928
10431.25,9.591683
10433.18,9.564392
10435.1,9.570764
10437.03,9.601894
10438.96,9.573228
10440.89,9.552172
10442.82,9.578287
10444.75,9.580286
10446.68,9.593274
10448.6,9.584135
10450.53,9.538032
10452.46,9.533797
10454.39,9.577723
10456.32,9.573611
10458.25,9.538137
10460.18,9.533982
10462.1,9.542719
10464.03,9.55722
10465.96,9.543918
10467.89,9.506551
10469.82,9.484286
10471.75,9.487776
10473.67,9.512582
10475.6,9.518083
10477.53,9.517393
10479.46,9.493082
10481.39,9.478473
10483.32,9.513491
10485.25,9.502062
10487.17,9.485616
10489.1,9.494359
10491.03,9.50479
10492.96,9.510289
10494.89,9.491101
10496.82,9.463953
10498.75,9.45903
10500.67,9.454085
10502.6,9.437263
10504.53,9.424606
10506.46,9.446585
10508.39,9.435014
10510.32,9.448769
10512.25,9.421314
10514.17,9.408807
10516.1,9.413253
10518.03,9.393887
10519.96,9.349986
10521.89,9.356939
10523.82,9.368928
10525.74,9.332576
10527.67,9.301395
10529.6,9.309739
10531.53,9.345107
10533.46,9.326213
10535.39,9.306817
10537.32,9.319921
10539.24,9.291304
10541.17,9.248192
10543.1,9.267025
10545.03,9.269479
10546.96,9.223758
10548.89,9.200512
10550.81,9.213939
10552.74,9.217075
10554.67,9.206566
10556.6,9.155306
10558.53,9.176017
10560.46,9.170171
10562.39,9.165243
10564.31,9.16763
10566.24,9.143208
10568.17,9.09203
10570.1,9.05798
10572.03,9.065132
10573.96,9.037606
10575.89,9.03861
10577.81,8.991994
10579.74,8.94995
10581.67,8.978562
10583.6,8.985968
10585.53,8.924463
10587.46,8.892494
10589.38,8.905657
10591.31,8.900684
10593.24,8.87221
10595.17,8.832294
10597.1,8.814857
10599.03,8.778884
10600.96,8.751223
10602.88,8.763775
10604.81,8.752326
10606.74,8.7482
10608.67,8.748631
10610.6,8.705211
10612.53,8.620566
10614.46,8.580826
10616.38,8.596449
10618.31,8.594683
10620.24,8.52599
10622.17,8.478909
10624.1,8.505256
10626.03,8.516596
10627.96,8.477926
10629.88,8.433932
10631.81,8.388305
10633.74,8.339093
10635.67,8.336843
10637.6,8.361773
10639.53,8.325145
10641.45,8.26572
10643.38,8.23722
10645.31,8.231849
10647.24,8.207789
10649.17,8.152599
10651.1,8.101529
10653.03,8.114567
10654.95,8.130887
10656.88,8.073903
10658.81,8.049213
10660.74,8.00693
10662.67,7.974294
10664.6,7.967994
10666.52,7.973837
10668.45,7.947428
10670.38,7.952968
10672.31,7.89493
10674.24,7.83009
10676.17,7.821221
10678.1,7.835979
10680.02,7.825025
10681.95,7.786992
10683.88,7.761325
10685.81,7.732471
10687.74,7.721426
10689.67,7.68531
10691.59,7.699919
10693.52,7.699162
10695.45,7.662729
10697.38,7.654647
10699.31,7.622581
10701.24,7.624463
10703.17,7.624832
10705.09,7.645962
10707.02,7.606527
10708.95,7.581863
10710.88,7.596857
10712.81,7.553468
10714.74,7.566836
10716.67,7.548866
10718.59,7.555635
10720.52,7.543607
10722.45,7.559897
10724.38,7.570259
10726.31,7.544105
10728.24,7.521673
10730.17,7.550464
10732.09,7.569619
10734.02,7.595408
10735.95,7.611429
10737.88,7.586652
10739.81,7.577623
10741.74,7.613309
10743.67,7.609941
10745.59,7.586065
10747.52,7.590849
10749.45,7.59476
10751.38,7.631273
10753.31,7.654025
10755.24,7.624697
10757.16,7.594956
10759.09,7.626277
10761.02,7.675542
10762.95,7.710891
10764.88,7.702032
10766.81,7.694395
10768.74,7.66983
10770.66,7.686962
10772.59,7.76022
10774.52,7.76504
10776.45,7.760548
10778.38,7.780878
10780.31,7.794221
10782.23,7.828298
10784.16,7.883473
10786.09,7.873677
10788.02,7.864789
10789.95,7.880656
10791.88,7.878914
10793.81,7.909657
10795.73,7.908409
10797.66,7.89492
10799.59,7.904577
10801.52,7.960791
10803.45,7.991446
10805.38,8.008686
10807.3,8.017178
10809.23,8.056158
10811.16,8.102963
10813.09,8.086061
10815.02,8.088907
10816.95,8.113433
10818.88,8.130568
10820.8,8.167719
10822.73,8.215969
10824.66,8.246396
10826.59,8.219391
10828.52,8.205945
10830.45,8.236131
10832.38,8.288988
10834.3,8.314652
10836.23,8.344838
10838.16,8.372644
10840.09,8.356846
10842.02,8.381419
10843.95,8.39225
10845.88,8.396079
10847.8,8.416792
10849.73,8.462644
10851.66,8.466105
10853.59,8.445438
10855.52,8.452475
10857.45,8.472321
10859.38,8.522157
10861.3,8.587754
10863.23,8.623519
10865.16,8.61164
10867.09,8.65534
10869.02,8.640049
10870.95,8.645956
10872.87,8.68358
10874.8,8.669642
10876.73,8.717794
10878.66,8.740838
10880.59,8.792202
10882.52,8.787154
10884.45,8.798252
10886.37,8.840474
10888.3,8.838512
10890.23,8.838369
10892.16,8.93419
10894.09,8.923106
10896.02,8.8936
10897.94,8.91829
10899.87,8.955347
10901.8,8.947227
10903.73,8.961567
10905.66,8.96834
10907.59,8.97934
10909.52,9.000161
10911.44,8.991632
10913.37,9.04433
10915.3,9.097452
10917.23,9.121491
10919.16,9.105739
10921.09,9.051705
10923.01,9.092993
10924.94,9.149216
10926.87,9.129181
10928.8,9.123763
10930.73,9.121715
10932.66,9.165063
10934.59,9.232083
10936.51,9.24693
10938.44,9.225669
10940.37,9.219566
10942.3,9.203998
10944.23,9.248602
10946.16,9.27579
10948.09,9.251607
10950.01,9.308847
10951.94,9.340878
10953.87,9.308934
10955.8,9.334667
10957.73,9.426608
10959.66,9.449071
10961.58,9.483023
10963.51,9.523321
10965.44,9.519255
10967.37,9.490369
10969.3,9.480095
10971.23,9.518036
10973.16,9.511129
10975.08,9.474922
10977.01,9.466375
10978.94,9.501441
10980.87,9.567183
10982.8,9.562737
10984.73,9.538219
10986.66,9.504914
10988.58,9.51413
10990.51,9.573183
10992.44,9.544623
10994.37,9.531682
10996.3,9.603164
10998.23,9.615761
11000.16,9.62918
11002.08,9.67228
11004.01,9.647655
11005.94,9.676137
11007.87,9.675827
11009.8,9.683828
11011.73,9.704287
11013.65,9.723633
11015.58,9.749329
11017.51,9.78452
11019.44,9.765341
11021.37,9.713632
11023.3,9.728888
11025.23,9.803074
11027.15,9.819118
11029.08,9.798703
11031.01,9.816446
11032.94,9.764557
11034.87,9.709855
11036.8,9.709325
11038.72,9.772888
11040.65,9.863697
11042.58,9.90592
11044.51,9.834642
11046.44,9.814754
11048.37,9.867611
11050.3,9.887543
11052.22,9.874018
11054.15,9.88866
11056.08,9.879553
11058.01,9.878859
11059.94,9.885205
11061.87,9.928808
11063.79,9.949751
11065.72,9.900148
11067.65,9.887735
11069.58,9.920704
11071.51,9.974023
11073.44,10.01948
11075.37,10.01047
11077.29,9.956991
11079.22,9.936455
11081.15,9.959766
11083.08,9.925667
11085.01,9.853663
11086.94,9.913811
11088.87,9.967497
11090.79,9.942226
11092.72,9.925477
11094.65,9.863852
11096.58,9.929488
11098.51,10.02826
11100.44,9.989233
11102.37,9.942397
11104.29,9.942854
11106.22,9.983299
11108.15,10.03261
11110.08,9.971716
11112.01,9.935483
11113.94,9.968463
11115.87,10.06674
11117.79,10.07716
11119.72,10.00747
11121.65,10.01066
11123.58,10.03391
11125.51,9.98366
11127.44,10.02472
11129.36,10.05901
11131.29,10.00601
11133.22,9.980171
11135.15,10.03666
11137.08,10.04219
11139.01,9.982696
11140.94,9.999344
11142.86,10.06823
11144.79,10.05879
11146.72,10.00916
11148.65,10.04905
11150.58,10.11992
11152.51,10.06225
11154.43,10.06537
11156.36,10.10189
11158.29,10.05926
11160.22,10.06927
11162.15,10.12615
11164.08,10.19631
11166.01,10.16326
11167.93,10.06712
11169.86,10.07403
11171.79,10.1072
11173.72,10.13379
11175.65,10.10568
11177.58,10.14174
11179.5,10.12414
11181.43,10.10536
11183.36,10.12375
11185.29,10.1748
11187.22,10.24648
11189.15,10.23126
11191.08,10.16839
11193.0,10.19785
11194.93,10.21517
11196.86,10.22396
11198.79,10.20743
11200.72,10.20244
11202.65,10.22909
11204.58,10.29541
11206.5,10.28967
11208.43,10.34164
11210.36,10.31236
11212.29,10.2495
11214.22,10.28106
11216.15,10.31395
11218.08,10.29233
11220.0,10.30091
11221.93,10.27339
11223.86,10.26839
11225.79,10.23752
11227.72,10.28717
11229.65,10.30066
11231.58,10.26785
11233.5,10.26047
11235.43,10.34324
11237.36,10.31497
11239.29,10.29405
11241.22,10.30863
11243.15,10.26242
11245.07,10.35931
11247.0,10.41853
11248.93,10.42205
11250.86,10.41243
11252.79,10.44114
11254.72,10.4209
11256.65,10.3892
11258.57,10.39039
11260.5,10.3921
11262.43,10.40702
11264.36,10.36554
11266.29,10.3642
11268.22,10.42116
11270.14,10.41402
11272.07,10.39182
11274.0,10.38151
11275.93,10.4
11277.86,10.44353
11279.79,10.4249
11281.72,10.49063
11283.64,10.49118
11285.57,10.42103
11287.5,10.41312
11289.43,10.47021
11291.36,10.43626
11293.29,10.39602
11295.21,10.39746
11297.14,10.3939
11299.07,10.41495
11301.0,10.47662
11302.93,10.4849
11304.86,10.45297
11306.79,10.44932
11308.71,10.51677
11310.64,10.54759
11312.57,10.5319
11314.5,10.46261
11316.43,10.49869
11318.36,10.49243
11320.29,10.49076
11322.21,10.51355
11324.14,10.50697
11326.07,10.54026
11328.0,10.54743
11329.93,10.54072
11331.86,10.53898
11333.79,10.56773
11335.71,10.54051
11337.64,10.5359
11339.57,10.56116
11341.5,10.51974
11343.43,10.55609
11345.36,10.57611
11347.28,10.62904
11349.21,10.60016
11351.14,10.55531
11353.07,10.63161
11355.0,10.66638
11356.93,10.57911
11358.86,10.55426
11360.78,10.55136
11362.71,10.58065
11364.64,10.52655
11366.57,10.47783
11368.5,10.40117
11370.43,10.47435
11372.36,10.51187
11374.28,10.49743
11376.21,10.57975
11378.14,10.67907
11380.07,10.66274
11382.0,10.6483
11383.93,10.63729
11385.85,10.57543
11387.78,10.56692
11389.71,10.56818
11391.64,10.55464
11393.57,10.63099
11395.5,10.65847
11397.43,10.60542
11399.35,10.64218
11401.28,10.57976
11403.21,10.54002
11405.14,10.59195
11407.07,10.68628
11409.0,10.71224
11410.92,10.65868
11412.85,10.71303
11414.78,10.68464
11416.71,10.69579
11418.64,10.74785
11420.57,10.73043
11422.5,10.65802
11424.42,10.70004
11426.35,10.72115
11428.28,10.76897
11430.21,10.71247
11432.14,10.70418
11434.07,10.67128
11436.0,10.66799
11437.92,10.6507
11439.85,10.71722
11441.78,10.70503
11443.71,10.64942
11445.64,10.58969
11447.57,10.59896
11449.5,10.6676
11451.42,10.76508
11453.35,10.75284
11455.28,10.75401
11457.21,10.75402
11459.14,10.73687
11461.07,10.71884
11462.99,10.70881
11464.92,10.71689
11466.85,10.73434
11468.78,10.78983
11470.71,10.76396
11472.64,10.76916
11474.57,10.78372
11476.49,10.82081
11478.42,10.94093
11480.35,10.92392
11482.28,10.81015
11484.21,10.69379
11486.14,10.68491
11488.07,10.72776
11489.99,10.72125
11491.92,10.72223
11493.85,10.81337
11495.78,10.79038
11497.71,10.79443
11499.64,10.85611
11501.56,10.8671
11503.49,10.78764
11505.42,10.72905
11507.35,10.76526
11509.28,10.80166
11511.21,10.74133
11513.14,10.73076
11515.06,10.69222
11516.99,10.73618
11518.92,10.79867
11520.85,10.77998
11522.78,10.69227
11524.71,10.70738
11526.63,10.75913
11528.56,10.80622
11530.49,10.81204
11532.42,10.78605
11534.35,10.83387
11536.28,10.79637
11538.21,10.8126
11540.13,10.84591
11542.06,10.8594
11543.99,10.84434
11545.92,10.79089
11547.85,10.83177
11549.78,10.8516
11551.71,10.82523
11553.63,10.75943
11555.56,10.79532
11557.49,10.85511
11559.42,10.86384
11561.35,10.85995
11563.28,10.82167
11565.21,10.74686
11567.13,10.81413
11569.06,10.86814
11570.99,10.86769
11572.92,10.83747
11574.85,10.74113
11576.78,10.85324
11578.7,10.94612
11580.63,10.85
11582.56,10.86997
11584.49,10.92474
11586.42,11.01973
11588.35,11.09632
11590.28,11.0611
11592.2,10.87246
11594.13,10.82339
11596.06,10.86981
11597.99,10.89883
11599.92,10.90991
11601.85,10.97299
11603.78,10.86091
11605.7,10.72381
11607.63,10.73522
11609.56,10.93052
11611.49,11.02562
11613.42,10.96565
11615.35,10.85017
11617.27,10.8767
11619.2,10.91697
11621.13,10.88567
11623.06,10.93724
11624.99,10.98057
11626.92,10.89723
11628.85,10.85248
11630.77,10.8674
11632.7,10.9275
11634.63,10.94102
11636.56,10.91343
11638.49,10.82817
11640.42,10.88192
11642.34,10.92101
11644.27,10.9257
11646.2,10.95576
11648.13,10.96093
11650.06,10.92911
11651.99,10.9099
11653.92,10.87261
11655.84,10.90816
11657.77,10.97617
11659.7,11.03581
11661.63,10.94647
11663.56,10.80597
11665.49,10.7937
11667.42,10.78222
11669.34,10.94909
11671.27,11.02594
11673.2,11.02871
11675.13,11.04615
11677.06,11.02335
11678.99,10.93142
11680.92,10.86315
11682.84,10.91883
11684.77,11.03159
11686.7,11.06229
11688.63,11.03321
11690.56,11.0038
11692.49,10.99185
11694.41,11.03007
11696.34,10.96475
11698.27,10.86323
11700.2,10.84567
11702.13,10.86491
11704.06,10.91768
11705.99,10.97322
11707.91,10.87913
11709.84,10.83843
11711.77,10.87321
11713.7,10.84569
11715.63,10.88849
11717.56,10.9779
11719.48,10.99882
11721.41,10.94405
11723.34,10.95685
11725.27,11.04955
11727.2,10.94981
11729.13,10.84585
11731.06,10.89644
11732.98,10.90177
11734.91,10.98622
11736.84,11.01212
11738.77,10.92964
11740.7,10.93974
11742.63,10.94384
11744.56,11.00137
11746.48,10.99819
11748.41,11.02143
11750.34,11.06543
11752.27,11.05851
11754.2,11.05728
11756.13,11.12589
11758.05,11.06646
11759.98,10.99491
11761.91,11.09803
11763.84,11.12967
11765.77,11.07526
11767.7,10.94816
11769.63,10.90891
11771.55,10.94996
11773.48,10.96038
11775.41,10.95716
11777.34,11.06911
11779.27,11.06011
11781.2,11.01091
11783.13,10.79497
11785.05,10.81794
11786.98,10.94169
11788.91,10.96389
11790.84,10.98359
11792.77,10.97894
11794.7,10.82888
11796.63,10.85885
11798.55,10.91635
11800.48,10.85161
11802.41,10.87655
11804.34,10.83988
11806.27,10.84613
11808.2,11.06334
11810.12,10.98533
11812.05,10.85464
11813.98,10.88263
11815.91,10.99291
11817.84,11.0229
11819.77,10.95175
11821.7,10.88104
11823.62,10.99102
11825.55,11.08241
11827.48,11.05982
11829.41,10.97021
11831.34,10.89896
11833.27,11.04451
11835.19,11.12536
11837.12,10.97437
11839.05,10.98135
11840.98,11.12133
11842.91,11.14054
11844.84,10.97729
11846.77,10.714
11848.69,10.45856
11850.62,10.69733
11852.55,10.96839
11854.48,11.01385
11856.41,10.94142
11858.34,11.02057
11860.27,11.11309
11862.19,11.06174
11864.12,11.13613
11866.05,11.15765
11867.98,11.04501
11869.91,10.89723
11871.84,10.83569
11873.76,10.94831
11875.69,10.89303
11877.62,10.94773
11879.55,11.02218
11881.48,11.0408
11883.41,10.96757
11885.34,10.8328
11887.26,10.87777
11889.19,11.00797
11891.12,10.93292
11893.05,10.77169
11894.98,10.93296
11896.91,10.9271
11898.83,10.89809
11900.76,10.99427
11902.69,10.99788
11904.62,10.98134
11906.55,10.96616
11908.48,11.00085
11910.41,11.02821
11912.33,10.87813
11914.26,10.7782
11916.19,10.81544
11918.12,10.84468
11920.05,10.90979
11921.98,10.96781
11923.91,10.96073
11925.83,10.99838
11927.76,10.95602
11929.69,11.01319
11931.62,11.00182
11933.55,11.00201
11935.48,10.95867
11937.41,10.90243
11939.33,10.89788
11941.26,10.94182
11943.19,10.8804
11945.12,10.90598
11947.05,10.88731
11948.98,10.90236
11950.9,10.90746
11952.83,11.04426
11954.76,10.99109
11956.69,10.9349
11958.62,10.92459
11960.55,10.91968
11962.48,10.89125
11964.4,10.93249
11966.33,10.89435
11968.26,10.90024
11970.19,10.84847
11972.12,10.77167
11974.05,10.81536
11975.98,10.7443
11977.9,10.8308
11979.83,11.03216
11981.76,10.94804
11983.69,10.88181
11985.62,10.89787
11987.55,10.997
11989.47,10.92509
11991.4,10.77171
11993.33,10.82627
11995.26,10.98143
11997.19,11.00232
11999.12,11.01898
