Wavenumber,Intensity
3999.706,2.317318
4001.634,2.315618
4003.563,2.317575
4005.491,2.318856
4007.42,2.31982
4009.348,2.320109
4011.277,2.322842
4013.205,2.318952
4015.134,2.316557
4017.062,2.323022
4018.991,2.325897
4020.919,2.324235
4022.848,2.322996
4024.776,2.324289
4026.705,2.325097
4028.633,2.328673
4030.562,2.326876
4032.49,2.331444
4034.419,2.331208
4036.347,2.328987
4038.276,2.327002
4040.204,2.328858
4042.133,2.330382
4044.061,2.335634
4045.99,2.338754
4047.918,2.334951
4049.847,2.334872
4051.775,2.339221
4053.704,2.33636
4055.632,2.337944
4057.561,2.340727
4059.489,2.335554
4061.418,2.335349
4063.346,2.34114
4065.275,2.340298
4067.203,2.3367
4069.132,2.336369
4071.06,2.33912
4072.989,2.338934
4074.917,2.338767
4076.846,2.341113
4078.774,2.343861
4080.703,2.345573
4082.631,2.342817
4084.56,2.338656
4086.488,2.338752
4088.417,2.338426
4090.345,2.337253
4092.274,2.340272
4094.202,2.341261
4096.131,2.339183
4098.059,2.341376
4099.988,2.343904
4101.916,2.345221
4103.845,2.345792
4105.773,2.34569
4107.702,2.345781
4109.63,2.345545
4111.559,2.346169
4113.487,2.344264
4115.416,2.348193
4117.344,2.351037
4119.273,2.349204
4121.201,2.346864
4123.13,2.347323
4125.058,2.347287
4126.987,2.348852
4128.915,2.349006
4130.844,2.347893
4132.772,2.350291
4134.701,2.351807
4136.629,2.34841
4138.558,2.348318
4140.486,2.348826
4142.415,2.348281
4144.343,2.348091
4146.271,2.34922
4148.2,2.353568
4150.129,2.355087
4152.057,2.354042
4153.986,2.35272
4155.914,2.355149
4157.843,2.352488
4159.771,2.348398
4161.7,2.351547
4163.628,2.356134
4165.557,2.358147
4167.485,2.359771
4169.414,2.358901
4171.342,2.3601
4173.271,2.362328
4175.199,2.36111
4177.127,2.365
4179.056,2.36604
4180.985,2.364305
4182.913,2.362264
4184.842,2.364775
4186.77,2.364831
4188.699,2.367101
4190.627,2.369828
4192.556,2.370758
4194.484,2.373905
4196.413,2.375253
4198.341,2.372576
4200.27,2.375421
4202.198,2.380464
4204.126,2.384728
4206.055,2.386439
4207.983,2.388695
4209.912,2.387896
4211.841,2.385937
4213.769,2.389186
4215.698,2.395349
4217.626,2.396373
4219.555,2.395201
4221.483,2.399612
4223.412,2.4025
4225.34,2.400262
4227.269,2.398338
4229.197,2.402235
4231.125,2.406384
4233.054,2.407462
4234.982,2.409262
4236.911,2.413311
4238.84,2.411588
4240.768,2.407018
4242.697,2.405182
4244.625,2.402745
4246.554,2.401094
4248.482,2.396607
4250.411,2.396604
4252.339,2.398015
4254.268,2.39979
4256.196,2.402357
4258.125,2.404786
4260.053,2.407585
4261.981,2.410857
4263.91,2.416436
4265.838,2.421272
4267.767,2.424479
4269.696,2.424035
4271.624,2.424561
4273.553,2.429647
4275.481,2.430297
4277.41,2.428874
4279.338,2.429458
4281.267,2.432799
4283.195,2.436663
4285.124,2.437922
4287.052,2.435435
4288.98,2.435991
4290.909,2.438396
4292.837,2.440433
4294.766,2.440678
4296.694,2.442224
4298.623,2.443385
4300.552,2.443208
4302.48,2.44113
4304.409,2.443624
4306.337,2.440417
4308.266,2.433901
4310.194,2.430569
4312.123,2.429702
4314.051,2.425038
4315.979,2.417618
4317.908,2.408556
4319.836,2.403718
4321.765,2.402494
4323.693,2.403513
4325.622,2.407327
4327.551,2.408433
4329.479,2.411207
4331.408,2.416038
4333.336,2.422053
4335.265,2.423925
4337.193,2.425158
4339.122,2.429351
4341.05,2.431671
4342.979,2.428705
4344.907,2.431613
4346.835,2.434459
4348.764,2.437124
4350.692,2.439794
4352.621,2.44611
4354.549,2.44954
4356.478,2.450737
4358.407,2.447407
4360.335,2.44736
4362.264,2.448693
4364.192,2.449262
4366.121,2.453512
4368.049,2.454165
4369.978,2.454838
4371.906,2.457247
4373.834,2.459651
4375.763,2.458223
4377.691,2.455084
4379.62,2.456506
4381.548,2.463247
4383.477,2.462945
4385.405,2.461378
4387.334,2.462774
4389.263,2.466208
4391.191,2.467423
4393.12,2.469482
4395.048,2.469057
4396.977,2.470392
4398.905,2.474273
4400.833,2.477648
4402.762,2.479937
4404.69,2.484086
4406.619,2.488674
4408.547,2.49472
4410.476,2.501582
4412.404,2.506226
4414.333,2.511543
4416.262,2.514833
4418.19,2.522034
4420.119,2.527673
4422.047,2.533933
4423.976,2.543777
4425.904,2.549229
4427.833,2.55782
4429.761,2.565487
4431.689,2.569882
4433.618,2.576825
4435.546,2.584807
4437.475,2.594416
4439.403,2.602478
4441.332,2.612642
4443.26,2.621838
4445.189,2.630517
4447.117,2.637292
4449.046,2.649992
4450.975,2.661842
4452.903,2.668513
4454.832,2.675684
4456.76,2.689262
4458.688,2.701877
4460.617,2.711231
4462.545,2.721534
4464.474,2.730589
4466.402,2.742177
4468.331,2.752815
4470.259,2.762035
4472.188,2.770658
4474.116,2.780144
4476.045,2.791305
4477.974,2.801678
4479.902,2.812259
4481.831,2.822101
4483.759,2.831907
4485.688,2.841273
4487.616,2.846252
4489.544,2.857888
4491.473,2.872918
4493.401,2.885443
4495.33,2.896157
4497.258,2.903645
4499.187,2.914216
4501.115,2.927001
4503.044,2.936018
4504.972,2.946784
4506.901,2.954721
4508.83,2.964386
4510.758,2.981271
4512.687,2.993115
4514.615,3.000442
4516.543,3.007942
4518.472,3.023075
4520.4,3.037669
4522.329,3.050691
4524.257,3.060407
4526.186,3.068656
4528.114,3.080525
4530.043,3.091175
4531.971,3.100393
4533.9,3.113992
4535.828,3.128519
4537.757,3.140685
4539.686,3.152466
4541.614,3.162956
4543.542,3.174127
4545.471,3.18928
4547.399,3.199578
4549.328,3.210233
4551.256,3.220986
4553.185,3.235614
4555.113,3.24884
4557.042,3.262004
4558.97,3.277679
4560.899,3.290988
4562.827,3.303965
4564.756,3.316452
4566.685,3.32503
4568.613,3.33576
4570.542,3.349026
4572.47,3.360559
4574.398,3.368364
4576.327,3.376262
4578.255,3.383161
4580.184,3.391076
4582.112,3.402603
4584.041,3.411124
4585.969,3.416828
4587.898,3.423872
4589.826,3.429877
4591.755,3.436109
4593.683,3.444667
4595.612,3.453473
4597.54,3.460452
4599.469,3.462989
4601.397,3.466571
4603.326,3.472831
4605.254,3.477301
4607.183,3.483737
4609.111,3.491404
4611.04,3.497467
4612.968,3.498149
4614.897,3.497172
4616.825,3.502215
4618.754,3.51029
4620.682,3.517638
4622.611,3.521722
4624.539,3.524793
4626.468,3.530786
4628.396,3.535039
4630.325,3.539351
4632.253,3.543834
4634.182,3.548169
4636.11,3.548732
4638.039,3.549355
4639.967,3.549765
4641.896,3.553588
4643.824,3.552911
4645.753,3.552565
4647.681,3.551774
4649.61,3.549466
4651.538,3.545078
4653.467,3.539359
4655.396,3.53249
4657.324,3.524966
4659.252,3.515982
4661.181,3.507083
4663.109,3.498508
4665.038,3.490733
4666.966,3.487195
4668.895,3.491194
4670.823,3.499698
4672.752,3.509969
4674.68,3.521751
4676.609,3.535603
4678.537,3.548396
4680.466,3.559873
4682.394,3.570138
4684.323,3.581472
4686.251,3.588364
4688.18,3.594206
4690.108,3.597087
4692.037,3.599005
4693.965,3.598703
4695.894,3.601068
4697.822,3.601162
4699.751,3.60553
4701.679,3.607857
4703.608,3.605321
4705.536,3.606202
4707.465,3.604783
4709.393,3.601058
4711.322,3.604253
4713.25,3.605555
4715.179,3.602416
4717.107,3.596213
4719.036,3.589819
4720.964,3.584614
4722.893,3.577479
4724.821,3.570807
4726.75,3.565678
4728.678,3.558306
4730.606,3.55546
4732.535,3.550298
4734.464,3.544069
4736.392,3.54216
4738.321,3.541032
4740.249,3.540461
4742.178,3.536674
4744.106,3.530859
4746.035,3.525352
4747.963,3.51934
4749.892,3.51792
4751.82,3.514979
4753.749,3.512847
4755.677,3.511129
4757.605,3.505437
4759.534,3.498765
4761.463,3.493412
4763.391,3.485154
4765.32,3.476198
4767.248,3.468801
4769.177,3.4604
4771.105,3.451045
4773.034,3.441359
4774.962,3.432661
4776.891,3.426305
4778.819,3.420347
4780.748,3.415279
4782.676,3.414145
4784.604,3.413384
4786.533,3.409619
4788.462,3.406924
4790.39,3.403606
4792.319,3.401954
4794.247,3.400965
4796.176,3.397888
4798.104,3.391337
4800.033,3.389644
4801.961,3.383681
4803.89,3.37659
4805.818,3.373725
4807.747,3.368433
4809.675,3.359297
4811.604,3.350877
4813.532,3.344989
4815.46,3.338837
4817.389,3.328966
4819.317,3.320171
4821.246,3.314527
4823.175,3.306155
4825.103,3.297923
4827.032,3.295058
4828.96,3.290401
4830.889,3.284556
4832.817,3.278503
4834.746,3.271298
4836.674,3.262863
4838.603,3.253848
4840.531,3.242128
4842.459,3.232185
4844.388,3.228335
4846.316,3.219019
4848.245,3.203682
4850.174,3.194871
4852.102,3.185196
4854.031,3.176769
4855.959,3.171309
4857.888,3.16311
4859.816,3.155463
4861.745,3.150435
4863.673,3.145163
4865.602,3.140061
4867.53,3.133794
4869.458,3.131936
4871.387,3.134898
4873.315,3.136075
4875.244,3.137067
4877.172,3.140651
4879.101,3.145478
4881.03,3.146075
4882.958,3.148324
4884.887,3.151408
4886.815,3.154818
4888.744,3.159555
4890.672,3.162445
4892.601,3.16481
4894.529,3.167628
4896.458,3.169574
4898.386,3.169337
4900.314,3.173075
4902.243,3.174972
4904.171,3.176924
4906.1,3.18052
4908.028,3.182384
4909.957,3.185398
4911.886,3.184124
4913.814,3.182979
4915.743,3.18243
4917.671,3.180833
4919.6,3.179836
4921.528,3.179425
4923.457,3.178601
4925.385,3.177815
4927.313,3.176017
4929.242,3.176779
4931.17,3.175934
4933.099,3.176122
4935.027,3.178834
4936.956,3.176912
4938.885,3.17051
4940.813,3.169272
4942.742,3.169413
4944.67,3.167475
4946.599,3.161428
4948.527,3.151592
4950.456,3.140097
4952.384,3.128392
4954.313,3.113825
4956.241,3.0934
4958.169,3.077361
4960.098,3.060549
4962.026,3.045196
4963.955,3.038883
4965.883,3.039408
4967.812,3.044755
4969.74,3.051596
4971.669,3.05753
4973.598,3.060778
4975.526,3.065815
4977.455,3.072284
4979.383,3.076792
4981.312,3.081874
4983.24,3.085286
4985.168,3.089887
4987.097,3.097516
4989.025,3.107654
4990.954,3.116473
4992.882,3.124006
4994.811,3.132833
4996.739,3.144012
4998.668,3.155327
5000.597,3.163134
5002.525,3.170667
5004.454,3.175844
5006.382,3.180555
5008.311,3.184102
5010.239,3.186936
5012.167,3.188054
5014.096,3.190125
5016.024,3.191053
5017.953,3.191896
5019.881,3.196599
5021.81,3.200192
5023.738,3.201308
5025.667,3.205596
5027.596,3.209441
5029.524,3.213708
5031.452,3.216236
5033.381,3.217587
5035.31,3.220124
5037.238,3.222221
5039.167,3.222476
5041.095,3.22313
5043.023,3.224369
5044.952,3.224813
5046.88,3.224579
5048.809,3.223684
5050.737,3.221075
5052.666,3.216879
5054.595,3.214739
5056.523,3.211088
5058.451,3.202481
5060.38,3.200006
5062.309,3.201302
5064.237,3.197363
5066.166,3.196857
5068.094,3.198781
5070.022,3.199935
5071.951,3.199502
5073.879,3.199665
5075.808,3.198856
5077.736,3.199525
5079.665,3.199952
5081.593,3.19731
5083.522,3.195167
5085.45,3.194425
5087.379,3.190214
5089.308,3.18787
5091.236,3.185189
5093.165,3.181864
5095.093,3.181271
5097.021,3.179265
5098.95,3.178719
5100.878,3.18139
5102.807,3.180063
5104.735,3.183868
5106.664,3.187401
5108.592,3.187506
5110.521,3.193448
5112.449,3.197165
5114.378,3.197806
5116.307,3.197402
5118.235,3.20157
5120.163,3.20363
5122.092,3.205905
5124.021,3.207203
5125.949,3.208591
5127.877,3.211026
5129.806,3.216977
5131.734,3.218007
5133.663,3.213575
5135.591,3.213338
5137.52,3.213351
5139.448,3.211984
5141.377,3.209598
5143.305,3.208704
5145.234,3.204613
5147.162,3.199194
5149.091,3.197722
5151.02,3.195585
5152.948,3.192681
5154.876,3.193439
5156.805,3.193477
5158.733,3.188603
5160.662,3.186131
5162.59,3.187416
5164.519,3.185446
5166.447,3.185382
5168.376,3.189201
5170.304,3.187832
5172.233,3.183674
5174.161,3.187022
5176.09,3.186622
5178.019,3.183762
5179.947,3.181538
5181.875,3.180328
5183.804,3.185351
5185.732,3.178862
5187.661,3.178762
5189.589,3.177715
5191.518,3.177859
5193.446,3.179682
5195.375,3.185768
5197.303,3.184144
5199.232,3.179088
5201.16,3.183574
5203.089,3.19366
5205.018,3.203182
5206.946,3.192843
5208.874,3.185679
5210.803,3.180336
5212.731,3.181835
5214.66,3.185369
5216.588,3.191032
5218.517,3.183605
5220.445,3.184293
5222.374,3.194082
5224.302,3.198232
5226.231,3.186881
5228.159,3.188529
5230.088,3.197063
5232.016,3.196746
5233.945,3.195204
5235.873,3.199104
5237.802,3.202334
5239.73,3.199271
5241.659,3.21088
5243.587,3.217647
5245.516,3.216469
5247.444,3.217569
5249.373,3.202744
5251.301,3.211769
5253.229,3.225058
5255.158,3.217278
5257.087,3.210306
5259.015,3.218599
5260.944,3.223294
5262.872,3.22525
5264.801,3.216214
5266.729,3.215594
5268.658,3.21701
5270.586,3.211271
5272.515,3.212862
5274.443,3.213045
5276.372,3.207994
5278.3,3.212625
5280.229,3.214796
5282.157,3.212291
5284.086,3.218377
5286.014,3.21702
5287.943,3.224068
5289.871,3.223247
5291.8,3.211426
5293.729,3.210695
5295.657,3.209135
5297.585,3.211245
5299.514,3.2083
5301.442,3.205083
5303.371,3.198446
5305.299,3.201985
5307.228,3.198279
5309.156,3.191856
5311.085,3.197207
5313.013,3.205364
5314.941,3.213651
5316.87,3.219321
5318.799,3.226395
5320.727,3.23423
5322.656,3.240209
5324.584,3.248519
5326.513,3.253369
5328.441,3.242093
5330.37,3.249404
5332.298,3.242255
5334.227,3.236281
5336.155,3.245543
5338.084,3.238285
5340.012,3.217513
5341.94,3.226368
5343.869,3.220987
5345.798,3.197948
5347.726,3.193236
5349.655,3.17763
5351.583,3.176739
5353.512,3.163637
5355.44,3.147495
5357.369,3.14377
5359.297,3.140728
5361.226,3.141956
5363.154,3.131721
5365.083,3.116987
5367.011,3.112201
5368.939,3.102459
5370.868,3.096588
5372.797,3.100225
5374.725,3.100616
5376.654,3.087735
5378.582,3.072886
5380.511,3.075942
5382.439,3.077345
5384.368,3.077501
5386.296,3.06022
5388.225,3.053677
5390.153,3.052747
5392.082,3.055836
5394.01,3.040153
5395.938,3.030091
5397.867,3.02031
5399.796,3.015049
5401.724,3.010456
5403.652,3.001619
5405.581,2.993597
5407.51,2.992207
5409.438,2.987601
5411.367,2.97609
5413.295,2.960458
5415.224,2.932994
5417.152,2.926847
5419.081,2.920586
5421.009,2.920168
5422.938,2.918985
5424.866,2.914443
5426.795,2.918258
5428.723,2.910612
5430.651,2.893875
5432.58,2.907416
5434.509,2.900781
5436.437,2.889295
5438.366,2.901495
5440.294,2.902538
5442.223,2.886312
5444.151,2.894084
5446.08,2.884255
5448.008,2.880439
5449.937,2.873425
5451.865,2.870194
5453.793,2.875556
5455.722,2.871711
5457.65,2.869086
5459.579,2.873297
5461.508,2.862935
5463.436,2.862408
5465.365,2.860078
5467.293,2.858494
5469.222,2.850239
5471.15,2.84585
5473.079,2.85547
5475.007,2.849365
5476.936,2.830859
5478.864,2.833947
5480.792,2.828972
5482.721,2.825753
5484.649,2.824342
5486.578,2.823883
5488.507,2.814461
5490.435,2.815324
5492.363,2.819843
5494.292,2.810399
5496.221,2.814436
5498.149,2.819032
5500.078,2.817397
5502.006,2.821202
5503.935,2.820695
5505.863,2.82529
5507.792,2.822974
5509.72,2.81842
5511.648,2.821996
5513.577,2.826791
5515.505,2.829648
5517.434,2.826131
5519.362,2.829635
5521.291,2.832545
5523.22,2.827301
5525.148,2.824122
5527.077,2.82591
5529.005,2.825333
5530.934,2.824485
5532.862,2.824935
5534.791,2.827328
5536.719,2.826299
5538.647,2.822351
5540.576,2.81982
5542.504,2.821398
5544.433,2.820394
5546.361,2.819733
5548.29,2.818945
5550.219,2.817283
5552.147,2.81616
5554.076,2.816617
5556.004,2.81842
5557.933,2.820347
5559.861,2.824141
5561.79,2.827459
5563.718,2.830673
5565.646,2.833726
5567.575,2.840133
5569.503,2.8433
5571.432,2.848164
5573.36,2.856984
5575.289,2.861479
5577.218,2.866384
5579.146,2.872436
5581.074,2.878924
5583.003,2.884873
5584.932,2.888468
5586.86,2.891496
5588.789,2.890735
5590.717,2.892169
5592.646,2.890334
5594.574,2.888283
5596.502,2.888772
5598.431,2.882854
5600.359,2.877594
5602.288,2.875015
5604.216,2.866818
5606.145,2.860656
5608.073,2.854215
5610.002,2.846948
5611.931,2.840965
5613.859,2.831359
5615.788,2.826306
5617.716,2.824723
5619.645,2.815576
5621.573,2.809101
5623.501,2.804928
5625.43,2.799067
5627.358,2.794285
5629.287,2.788721
5631.215,2.778785
5633.144,2.772356
5635.072,2.766111
5637.001,2.762754
5638.93,2.759811
5640.858,2.752899
5642.786,2.742037
5644.715,2.730476
5646.644,2.72258
5648.572,2.70975
5650.5,2.695493
5652.429,2.683203
5654.357,2.669752
5656.286,2.659314
5658.214,2.652775
5660.143,2.647249
5662.071,2.642807
5664.0,2.640729
5665.929,2.641276
5667.857,2.645577
5669.785,2.651646
5671.714,2.655103
5673.643,2.662327
5675.571,2.664094
5677.5,2.665491
5679.428,2.674912
5681.356,2.679351
5683.285,2.683279
5685.213,2.690315
5687.142,2.696518
5689.07,2.700755
5690.999,2.705825
5692.927,2.714297
5694.856,2.724687
5696.784,2.733303
5698.713,2.739923
5700.642,2.744839
5702.57,2.752149
5704.499,2.764642
5706.427,2.776127
5708.355,2.781784
5710.284,2.788007
5712.212,2.7946
5714.141,2.799463
5716.069,2.80265
5717.998,2.803043
5719.926,2.797482
5721.855,2.7919
5723.783,2.781851
5725.712,2.766862
5727.641,2.747916
5729.569,2.733063
5731.497,2.722848
5733.426,2.717771
5735.354,2.714725
5737.283,2.711598
5739.211,2.704973
5741.14,2.701017
5743.068,2.693686
5744.997,2.685269
5746.925,2.679224
5748.854,2.6703
5750.782,2.661749
5752.711,2.654192
5754.639,2.650145
5756.568,2.645795
5758.496,2.641993
5760.425,2.639539
5762.354,2.635317
5764.282,2.631821
5766.21,2.628934
5768.139,2.622933
5770.067,2.618748
5771.996,2.620615
5773.924,2.618484
5775.853,2.618114
5777.781,2.619971
5779.71,2.62539
5781.638,2.629216
5783.567,2.627846
5785.495,2.627888
5787.424,2.625097
5789.353,2.627653
5791.281,2.632966
5793.209,2.632882
5795.138,2.633048
5797.066,2.638913
5798.995,2.643182
5800.923,2.644238
5802.852,2.646088
5804.78,2.645798
5806.709,2.645786
5808.637,2.649292
5810.566,2.654666
5812.494,2.65966
5814.423,2.660788
5816.352,2.663736
5818.28,2.669404
5820.208,2.670624
5822.137,2.674885
5824.065,2.68064
5825.994,2.685076
5827.922,2.692571
5829.851,2.69781
5831.779,2.704779
5833.708,2.714252
5835.636,2.721346
5837.565,2.723979
5839.493,2.731217
5841.422,2.742084
5843.35,2.754727
5845.279,2.764858
5847.207,2.774987
5849.136,2.791384
5851.064,2.81353
5852.993,2.831481
5854.921,2.850254
5856.85,2.878467
5858.778,2.910121
5860.707,2.937851
5862.635,2.970029
5864.563,3.003845
5866.492,3.045774
5868.421,3.089867
5870.349,3.135869
5872.278,3.183765
5874.206,3.235883
5876.135,3.292341
5878.063,3.348526
5879.992,3.401752
5881.92,3.459686
5883.849,3.512977
5885.777,3.563439
5887.706,3.60949
5889.634,3.650123
5891.563,3.688786
5893.491,3.726419
5895.42,3.755408
5897.348,3.779365
5899.277,3.803949
5901.205,3.829945
5903.134,3.858266
5905.063,3.892699
5906.991,3.929281
5908.919,3.970213
5910.848,4.016722
5912.776,4.068337
5914.705,4.123472
5916.633,4.179652
5918.562,4.238015
5920.49,4.300766
5922.419,4.360851
5924.347,4.418589
5926.276,4.478339
5928.204,4.534728
5930.133,4.586779
5932.061,4.6383
5933.99,4.687457
5935.918,4.735097
5937.847,4.781745
5939.775,4.824204
5941.704,4.866206
5943.632,4.907756
5945.561,4.943401
5947.489,4.983869
5949.418,5.024848
5951.346,5.064082
5953.274,5.100784
5955.203,5.142017
5957.132,5.182518
5959.06,5.225417
5960.989,5.272142
5962.917,5.318231
5964.846,5.362061
5966.774,5.408242
5968.703,5.452265
5970.631,5.499755
5972.56,5.542067
5974.488,5.584399
5976.417,5.625113
5978.345,5.668798
5980.273,5.708088
5982.202,5.747256
5984.131,5.784218
5986.059,5.822007
5987.988,5.857891
5989.916,5.895852
5991.845,5.92941
5993.773,5.964633
5995.702,5.998717
5997.63,6.035415
5999.559,6.069397
6001.487,6.101346
6003.416,6.129744
6005.344,6.16397
6007.272,6.196181
6009.201,6.230287
6011.13,6.261645
6013.058,6.292219
6014.986,6.320547
6016.915,6.352217
6018.844,6.383998
6020.772,6.411868
6022.701,6.43497
6024.629,6.462748
6026.558,6.489992
6028.486,6.517564
6030.415,6.542558
6032.343,6.566388
6034.271,6.589996
6036.2,6.616941
6038.129,6.638948
6040.057,6.659577
6041.985,6.679301
6043.914,6.700555
6045.843,6.719459
6047.771,6.740314
6049.7,6.76088
6051.628,6.781106
6053.557,6.797146
6055.485,6.822106
6057.414,6.840021
6059.342,6.859002
6061.271,6.876205
6063.199,6.893495
6065.128,6.90666
6067.056,6.924991
6068.984,6.94237
6070.913,6.955359
6072.842,6.967577
6074.77,6.984589
6076.698,7.003767
6078.627,7.015978
6080.556,7.02441
6082.484,7.041082
6084.413,7.057429
6086.341,7.073122
6088.27,7.087557
6090.198,7.098683
6092.126,7.11083
6094.055,7.12185
6095.983,7.130132
6097.912,7.144781
6099.841,7.15418
6101.769,7.167139
6103.697,7.183673
6105.626,7.196005
6107.555,7.202543
6109.483,7.217527
6111.412,7.227917
6113.34,7.239041
6115.269,7.250144
6117.197,7.262493
6119.125,7.272082
6121.054,7.282755
6122.982,7.295104
6124.911,7.309525
6126.84,7.312833
6128.768,7.320572
6130.696,7.33132
6132.625,7.344802
6134.554,7.357389
6136.482,7.365977
6138.41,7.376942
6140.339,7.389861
6142.268,7.396619
6144.196,7.407584
6146.125,7.417456
6148.053,7.429402
6149.981,7.438537
6151.91,7.446713
6153.839,7.457311
6155.767,7.471213
6157.695,7.478628
6159.624,7.48631
6161.553,7.496741
6163.481,7.509696
6165.409,7.516179
6167.338,7.52529
6169.267,7.538103
6171.195,7.549811
6173.124,7.562314
6175.052,7.577703
6176.98,7.579535
6178.909,7.584911
6180.837,7.593085
6182.766,7.601815
6184.694,7.606096
6186.623,7.611273
6188.552,7.62073
6190.48,7.632676
6192.408,7.63802
6194.337,7.64206
6196.266,7.649185
6198.194,7.65747
6200.123,7.660388
6202.051,7.666096
6203.979,7.675262
6205.908,7.684758
6207.836,7.69119
6209.765,7.696321
6211.693,7.696723
6213.622,7.699398
6215.551,7.707074
6217.479,7.717781
6219.407,7.723866
6221.336,7.728157
6223.265,7.733059
6225.193,7.739846
6227.121,7.746312
6229.05,7.752831
6230.979,7.75485
6232.907,7.758556
6234.835,7.762414
6236.764,7.76477
6238.692,7.763533
6240.621,7.770013
6242.549,7.775139
6244.478,7.776886
6246.406,7.776581
6248.335,7.781913
6250.264,7.786148
6252.192,7.790483
6254.12,7.789556
6256.049,7.789595
6257.978,7.789557
6259.906,7.796744
6261.834,7.798938
6263.763,7.800181
6265.691,7.801256
6267.62,7.810441
6269.548,7.811487
6271.477,7.811088
6273.405,7.810766
6275.334,7.810956
6277.263,7.813083
6279.191,7.819422
6281.119,7.826067
6283.048,7.831024
6284.977,7.829025
6286.905,7.830328
6288.833,7.833433
6290.762,7.833383
6292.69,7.833638
6294.619,7.835792
6296.547,7.837189
6298.476,7.84046
6300.404,7.840744
6302.333,7.842851
6304.262,7.846823
6306.19,7.846642
6308.118,7.843459
6310.047,7.843033
6311.976,7.845019
6313.904,7.852259
6315.832,7.853408
6317.761,7.849642
6319.689,7.844397
6321.618,7.845505
6323.546,7.843546
6325.475,7.840245
6327.403,7.837644
6329.332,7.83491
6331.26,7.831776
6333.189,7.829298
6335.117,7.826114
6337.046,7.823415
6338.975,7.819973
6340.903,7.817951
6342.831,7.813285
6344.76,7.8068
6346.688,7.799931
6348.617,7.793834
6350.545,7.792555
6352.474,7.788528
6354.402,7.779769
6356.331,7.770813
6358.259,7.76641
6360.188,7.760957
6362.116,7.753783
6364.045,7.742157
6365.974,7.726807
6367.902,7.713821
6369.83,7.700833
6371.759,7.683245
6373.688,7.671358
6375.616,7.665984
6377.544,7.656668
6379.473,7.650635
6381.401,7.642076
6383.33,7.637204
6385.258,7.639777
6387.187,7.636503
6389.115,7.626107
6391.044,7.625066
6392.973,7.622088
6394.901,7.618756
6396.829,7.611431
6398.758,7.604296
6400.687,7.595029
6402.615,7.580241
6404.543,7.56547
6406.472,7.554874
6408.4,7.539369
6410.329,7.522379
6412.257,7.503923
6414.186,7.481048
6416.114,7.46474
6418.043,7.462944
6419.971,7.4554
6421.9,7.443134
6423.828,7.434441
6425.757,7.431592
6427.686,7.427075
6429.614,7.421765
6431.542,7.413814
6433.471,7.40451
6435.399,7.392789
6437.328,7.381274
6439.256,7.362405
6441.185,7.348873
6443.113,7.333674
6445.042,7.314533
6446.97,7.29513
6448.898,7.268943
6450.827,7.240167
6452.756,7.216447
6454.685,7.195391
6456.613,7.173837
6458.541,7.14363
6460.47,7.10749
6462.398,7.069006
6464.327,7.021206
6466.255,6.962613
6468.184,6.901162
6470.112,6.835792
6472.041,6.770074
6473.969,6.697055
6475.897,6.629035
6477.826,6.569045
6479.755,6.524701
6481.684,6.498205
6483.612,6.491712
6485.54,6.492154
6487.469,6.498866
6489.397,6.516338
6491.326,6.540928
6493.254,6.561775
6495.183,6.584594
6497.111,6.606377
6499.04,6.629786
6500.968,6.656697
6502.896,6.676185
6504.825,6.690705
6506.754,6.705753
6508.682,6.722092
6510.61,6.741582
6512.539,6.757034
6514.468,6.773242
6516.396,6.786585
6518.325,6.795218
6520.253,6.805172
6522.182,6.820334
6524.11,6.831431
6526.039,6.84125
6527.967,6.852588
6529.896,6.861001
6531.824,6.868535
6533.753,6.881057
6535.681,6.88714
6537.609,6.892431
6539.538,6.900208
6541.467,6.908163
6543.396,6.911563
6545.324,6.917465
6547.252,6.925887
6549.181,6.931303
6551.109,6.933387
6553.038,6.936196
6554.966,6.941984
6556.895,6.952748
6558.823,6.960544
6560.752,6.964906
6562.68,6.969224
6564.608,6.981325
6566.537,6.986499
6568.466,6.999845
6570.394,7.009512
6572.323,7.011736
6574.251,7.017254
6576.18,7.025588
6578.108,7.031973
6580.037,7.03857
6581.965,7.04319
6583.894,7.050499
6585.822,7.053857
6587.751,7.057176
6589.679,7.062711
6591.607,7.067973
6593.536,7.071264
6595.465,7.075863
6597.393,7.076543
6599.321,7.073847
6601.25,7.075172
6603.179,7.073588
6605.107,7.072731
6607.036,7.077448
6608.964,7.076673
6610.893,7.078119
6612.821,7.077394
6614.75,7.077734
6616.678,7.079036
6618.606,7.075669
6620.535,7.067957
6622.464,7.066372
6624.392,7.060419
6626.32,7.060666
6628.249,7.060239
6630.178,7.056846
6632.106,7.048483
6634.035,7.046157
6635.963,7.043426
6637.892,7.039135
6639.82,7.034684
6641.749,7.02919
6643.677,7.021582
6645.605,7.013162
6647.534,7.007942
6649.463,7.006349
6651.391,6.998238
6653.319,6.993631
6655.248,6.986452
6657.177,6.980028
6659.105,6.970698
6661.034,6.965131
6662.962,6.958241
6664.891,6.948841
6666.819,6.938985
6668.748,6.930711
6670.676,6.922686
6672.604,6.915983
6674.533,6.907608
6676.462,6.899633
6678.39,6.887149
6680.318,6.87424
6682.247,6.866332
6684.176,6.855772
6686.104,6.846321
6688.032,6.83646
6689.961,6.822602
6691.89,6.814112
6693.818,6.803038
6695.747,6.791514
6697.675,6.777713
6699.604,6.764752
6701.532,6.753551
6703.46,6.74128
6705.389,6.728216
6707.317,6.714144
6709.246,6.694832
6711.175,6.678882
6713.103,6.667353
6715.031,6.65565
6716.96,6.638637
6718.889,6.627836
6720.817,6.61353
6722.746,6.597897
6724.674,6.586614
6726.603,6.573705
6728.531,6.55751
6730.459,6.545275
6732.388,6.53604
6734.316,6.527279
6736.245,6.51226
6738.174,6.49769
6740.102,6.479962
6742.03,6.467283
6743.959,6.454144
6745.888,6.442742
6747.816,6.432172
6749.745,6.418788
6751.673,6.406917
6753.602,6.398921
6755.53,6.384016
6757.458,6.368185
6759.387,6.357136
6761.315,6.342334
6763.244,6.325308
6765.173,6.310622
6767.101,6.295434
6769.029,6.284381
6770.958,6.267566
6772.887,6.247183
6774.815,6.231685
6776.743,6.216702
6778.672,6.196288
6780.601,6.171776
6782.529,6.149371
6784.458,6.126934
6786.386,6.102997
6788.314,6.083264
6790.243,6.058869
6792.171,6.035615
6794.1,6.004723
6796.028,5.977322
6797.957,5.953081
6799.886,5.928704
6801.814,5.903007
6803.742,5.877029
6805.671,5.849337
6807.6,5.828227
6809.528,5.805569
6811.457,5.781938
6813.385,5.756616
6815.313,5.731828
6817.242,5.708086
6819.17,5.679095
6821.099,5.655945
6823.027,5.629196
6824.956,5.602516
6826.885,5.576606
6828.813,5.544402
6830.741,5.519848
6832.67,5.504403
6834.599,5.487271
6836.527,5.470073
6838.455,5.455246
6840.384,5.441023
6842.313,5.429021
6844.241,5.413995
6846.169,5.40618
6848.098,5.397148
6850.026,5.383093
6851.955,5.367054
6853.884,5.353547
6855.812,5.340213
6857.74,5.324094
6859.669,5.313147
6861.598,5.302775
6863.526,5.285591
6865.454,5.270355
6867.383,5.258986
6869.312,5.24891
6871.24,5.231514
6873.168,5.213825
6875.097,5.195508
6877.025,5.181119
6878.954,5.163927
6880.882,5.144515
6882.811,5.128609
6884.739,5.11255
6886.668,5.092319
6888.597,5.070527
6890.525,5.050745
6892.453,5.035461
6894.382,5.016833
6896.311,5.000787
6898.239,4.984752
6900.167,4.9673
6902.096,4.949783
6904.024,4.939102
6905.953,4.926754
6907.881,4.913428
6909.81,4.902225
6911.738,4.89357
6913.667,4.876621
6915.596,4.861475
6917.524,4.84127
6919.452,4.823585
6921.381,4.810003
6923.31,4.794049
6925.238,4.774045
6927.166,4.754058
6929.095,4.734698
6931.023,4.710383
6932.952,4.684832
6934.88,4.664484
6936.809,4.63729
6938.737,4.608999
6940.666,4.58531
6942.594,4.564786
6944.523,4.544178
6946.451,4.51982
6948.38,4.501294
6950.309,4.496594
6952.237,4.489946
6954.165,4.485161
6956.094,4.480601
6958.022,4.478897
6959.951,4.47495
6961.879,4.478164
6963.808,4.47634
6965.736,4.476816
6967.665,4.47549
6969.593,4.476838
6971.521,4.47733
6973.45,4.479324
6975.379,4.474997
6977.308,4.469377
6979.236,4.469172
6981.164,4.468064
6983.093,4.464158
6985.021,4.46511
6986.95,4.455665
6988.878,4.44969
6990.807,4.444125
6992.735,4.436311
6994.664,4.424229
6996.592,4.421845
6998.521,4.417217
7000.449,4.408256
7002.378,4.39799
7004.307,4.384052
7006.235,4.368142
7008.163,4.351137
7010.092,4.344368
7012.021,4.34091
7013.949,4.328119
7015.877,4.311102
7017.806,4.296035
7019.734,4.291881
7021.663,4.292007
7023.591,4.286581
7025.52,4.282428
7027.448,4.281451
7029.377,4.283133
7031.305,4.283442
7033.234,4.286415
7035.162,4.289521
7037.091,4.292937
7039.02,4.292969
7040.948,4.289622
7042.876,4.286681
7044.805,4.280921
7046.733,4.270313
7048.662,4.246094
7050.59,4.22534
7052.519,4.202624
7054.447,4.172306
7056.376,4.139097
7058.304,4.107934
7060.232,4.086949
7062.161,4.077339
7064.09,4.070679
7066.019,4.081109
7067.947,4.100453
7069.875,4.13378
7071.804,4.169293
7073.732,4.207141
7075.661,4.247225
7077.589,4.289415
7079.518,4.330853
7081.446,4.367753
7083.375,4.396942
7085.303,4.42011
7087.231,4.439646
7089.16,4.459764
7091.089,4.486462
7093.018,4.514736
7094.946,4.52241
7096.874,4.535956
7098.803,4.568561
7100.731,4.59141
7102.66,4.608479
7104.588,4.640055
7106.517,4.669502
7108.445,4.694871
7110.374,4.717669
7112.302,4.745893
7114.23,4.781271
7116.159,4.823771
7118.088,4.835395
7120.016,4.854869
7121.944,4.879545
7123.873,4.891906
7125.802,4.90615
7127.73,4.91821
7129.659,4.921807
7131.587,4.915567
7133.516,4.915133
7135.444,4.913097
7137.373,4.903572
7139.301,4.873166
7141.229,4.84613
7143.158,4.827175
7145.087,4.79371
7147.015,4.760359
7148.943,4.731106
7150.872,4.682742
7152.801,4.623614
7154.729,4.556285
7156.658,4.474623
7158.586,4.392931
7160.515,4.29687
7162.443,4.178302
7164.372,4.083237
7166.3,3.99333
7168.229,3.914421
7170.157,3.848621
7172.086,3.829581
7174.014,3.83246
7175.942,3.857239
7177.871,3.903345
7179.8,3.959447
7181.729,4.01826
7183.657,4.078018
7185.585,4.148341
7187.514,4.212204
7189.442,4.270782
7191.371,4.335133
7193.299,4.407436
7195.228,4.471632
7197.156,4.531898
7199.085,4.592916
7201.013,4.667418
7202.941,4.741644
7204.87,4.805513
7206.799,4.861063
7208.727,4.930165
7210.655,4.990389
7212.584,5.046191
7214.513,5.101253
7216.441,5.163969
7218.37,5.235199
7220.298,5.287633
7222.227,5.338693
7224.155,5.416132
7226.083,5.480145
7228.012,5.536714
7229.94,5.616453
7231.869,5.672388
7233.798,5.706661
7235.726,5.769724
7237.654,5.826431
7239.583,5.893475
7241.512,5.954549
7243.44,5.986781
7245.369,6.032562
7247.297,6.088595
7249.226,6.142079
7251.154,6.21073
7253.083,6.262853
7255.011,6.30995
7256.939,6.359426
7258.868,6.417917
7260.797,6.486423
7262.725,6.536765
7264.653,6.58588
7266.582,6.642513
7268.511,6.688567
7270.439,6.741961
7272.368,6.798604
7274.296,6.851643
7276.225,6.894004
7278.153,6.945716
7280.082,6.996909
7282.01,7.043363
7283.938,7.09116
7285.867,7.152025
7287.796,7.204419
7289.724,7.252372
7291.652,7.311605
7293.581,7.365652
7295.51,7.396288
7297.438,7.459418
7299.366,7.500796
7301.295,7.53793
7303.224,7.598428
7305.152,7.668091
7307.081,7.70134
7309.009,7.747771
7310.938,7.804928
7312.866,7.836579
7314.794,7.884975
7316.723,7.926141
7318.651,7.970379
7320.58,8.010993
7322.509,8.056598
7324.437,8.090911
7326.365,8.13691
7328.294,8.146086
7330.223,8.166132
7332.151,8.193072
7334.08,8.227664
7336.008,8.26139
7337.937,8.305157
7339.865,8.312489
7341.793,8.323784
7343.722,8.347033
7345.65,8.368841
7347.579,8.388361
7349.508,8.400177
7351.436,8.433553
7353.364,8.468025
7355.293,8.490153
7357.222,8.497714
7359.15,8.535492
7361.079,8.557131
7363.007,8.578691
7364.936,8.606449
7366.864,8.640883
7368.792,8.654051
7370.721,8.670649
7372.649,8.697529
7374.578,8.728721
7376.507,8.73662
7378.435,8.76405
7380.363,8.793534
7382.292,8.806751
7384.221,8.820646
7386.149,8.833578
7388.077,8.846045
7390.006,8.858338
7391.935,8.875788
7393.863,8.894203
7395.792,8.902964
7397.72,8.910894
7399.648,8.918216
7401.577,8.930594
7403.505,8.944009
7405.434,8.950641
7407.362,8.948337
7409.291,8.955358
7411.22,8.966658
7413.148,8.980879
7415.076,8.992095
7417.005,8.994761
7418.934,9.001162
7420.862,9.009644
7422.791,9.006932
7424.719,9.010591
7426.647,9.01644
7428.576,9.023926
7430.504,9.028285
7432.433,9.028657
7434.361,9.039028
7436.29,9.049856
7438.219,9.044504
7440.147,9.047129
7442.075,9.058069
7444.004,9.062764
7445.933,9.059806
7447.861,9.065856
7449.789,9.078879
7451.718,9.081974
7453.646,9.082577
7455.575,9.087708
7457.503,9.087671
7459.432,9.09687
7461.36,9.099812
7463.289,9.097169
7465.218,9.100511
7467.146,9.107296
7469.074,9.112384
7471.003,9.115999
7472.932,9.113924
7474.86,9.114807
7476.788,9.117087
7478.717,9.117087
7480.646,9.11315
7482.574,9.117364
7484.502,9.125279
7486.431,9.120897
7488.359,9.116871
7490.288,9.12063
7492.216,9.123419
7494.145,9.12827
7496.073,9.131454
7498.002,9.13209
7499.931,9.126909
7501.859,9.1255
7503.787,9.122213
7505.716,9.121848
7507.645,9.124858
7509.573,9.127555
7511.501,9.124969
7513.43,9.116307
7515.358,9.112989
7517.287,9.114526
7519.215,9.116931
7521.144,9.120371
7523.072,9.117325
7525.001,9.111096
7526.93,9.106147
7528.858,9.107675
7530.786,9.111924
7532.715,9.110151
7534.644,9.104383
7536.572,9.101195
7538.5,9.099003
7540.429,9.095114
7542.357,9.089089
7544.286,9.087676
7546.214,9.087993
7548.143,9.083865
7550.071,9.086828
7552.0,9.079011
7553.928,9.071979
7555.857,9.071055
7557.785,9.069516
7559.714,9.065681
7561.643,9.060953
7563.571,9.058018
7565.499,9.058784
7567.428,9.052648
7569.356,9.046844
7571.285,9.042817
7573.213,9.038304
7575.142,9.038438
7577.07,9.033492
7578.999,9.028082
7580.927,9.020574
7582.855,9.025739
7584.784,9.019759
7586.713,9.013269
7588.642,9.008713
7590.57,9.005715
7592.498,9.004886
7594.427,9.007374
7596.355,9.001396
7598.284,8.996663
7600.212,8.984397
7602.141,8.97279
7604.069,8.965974
7605.998,8.961745
7607.926,8.958508
7609.854,8.950077
7611.783,8.942155
7613.712,8.940465
7615.641,8.933958
7617.569,8.930376
7619.497,8.922842
7621.426,8.909169
7623.354,8.906733
7625.283,8.90596
7627.211,8.895516
7629.14,8.883759
7631.068,8.876222
7632.997,8.873199
7634.925,8.872701
7636.854,8.861475
7638.782,8.847992
7640.711,8.840462
7642.639,8.836022
7644.568,8.827092
7646.496,8.814518
7648.425,8.809482
7650.354,8.812044
7652.282,8.809056
7654.21,8.796516
7656.139,8.78583
7658.067,8.781473
7659.996,8.781761
7661.924,8.771549
7663.853,8.765083
7665.781,8.768255
7667.71,8.761759
7669.638,8.748316
7671.566,8.741054
7673.495,8.734153
7675.424,8.735291
7677.353,8.732274
7679.281,8.725365
7681.209,8.723372
7683.138,8.715796
7685.066,8.713568
7686.995,8.710271
7688.923,8.698147
7690.852,8.6965
7692.78,8.695948
7694.709,8.689822
7696.637,8.684129
7698.565,8.677642
7700.494,8.672852
7702.423,8.672706
7704.352,8.671037
7706.28,8.66223
7708.208,8.657432
7710.137,8.653973
7712.065,8.653808
7713.994,8.646093
7715.922,8.643492
7717.851,8.62898
7719.779,8.621323
7721.708,8.623416
7723.636,8.624166
7725.564,8.618871
7727.493,8.610496
7729.422,8.605881
7731.35,8.603424
7733.279,8.597595
7735.207,8.591021
7737.136,8.586879
7739.064,8.5803
7740.993,8.57179
7742.921,8.573649
7744.85,8.574198
7746.778,8.571286
7748.707,8.561145
7750.635,8.555063
7752.563,8.547779
7754.492,8.544259
7756.421,8.543468
7758.349,8.529105
7760.277,8.515265
7762.206,8.513605
7764.135,8.510655
7766.063,8.503797
7767.992,8.499409
7769.92,8.489605
7771.849,8.481975
7773.777,8.474716
7775.706,8.468956
7777.634,8.4657
7779.563,8.464708
7781.491,8.458959
7783.42,8.462387
7785.348,8.462729
7787.276,8.453701
7789.205,8.450822
7791.134,8.446938
7793.063,8.439323
7794.991,8.436032
7796.919,8.437196
7798.848,8.428919
7800.776,8.424399
7802.705,8.417009
7804.633,8.406702
7806.562,8.395951
7808.49,8.396998
7810.419,8.397414
7812.347,8.38349
7814.275,8.371138
7816.204,8.36883
7818.133,8.367564
7820.061,8.360503
7821.989,8.350618
7823.918,8.338817
7825.847,8.33392
7827.775,8.336292
7829.704,8.327724
7831.632,8.31205
7833.561,8.29917
7835.489,8.296236
7837.417,8.290287
7839.346,8.28259
7841.274,8.273583
7843.203,8.270715
7845.132,8.265391
7847.06,8.252956
7848.988,8.245012
7850.917,8.236754
7852.846,8.220558
7854.774,8.206429
7856.703,8.204588
7858.631,8.1928
7860.56,8.184816
7862.488,8.184118
7864.417,8.172326
7866.345,8.15444
7868.273,8.139257
7870.202,8.133795
7872.131,8.120432
7874.059,8.110399
7875.987,8.098133
7877.916,8.081273
7879.845,8.072019
7881.773,8.060024
7883.702,8.051661
7885.63,8.047122
7887.559,8.037022
7889.487,8.02511
7891.416,8.008376
7893.344,7.989808
7895.272,7.971484
7897.201,7.952376
7899.13,7.927207
7901.058,7.929101
7902.986,7.915727
7904.915,7.904081
7906.844,7.894942
7908.772,7.880729
7910.7,7.865397
7912.629,7.856193
7914.558,7.841717
7916.486,7.825655
7918.415,7.807325
7920.343,7.786571
7922.271,7.770855
7924.2,7.755778
7926.128,7.74552
7928.057,7.736917
7929.985,7.711265
7931.914,7.691375
7933.843,7.676096
7935.771,7.664106
7937.699,7.647754
7939.628,7.629724
7941.557,7.615879
7943.485,7.597662
7945.414,7.58172
7947.342,7.565697
7949.271,7.537304
7951.199,7.522561
7953.127,7.501647
7955.056,7.481175
7956.984,7.461499
7958.913,7.443532
7960.842,7.422945
7962.77,7.400492
7964.698,7.373648
7966.627,7.346931
7968.556,7.331548
7970.484,7.314421
7972.413,7.291568
7974.341,7.274497
7976.27,7.257078
7978.198,7.236283
7980.126,7.217675
7982.055,7.203807
7983.983,7.179819
7985.912,7.149885
7987.841,7.120048
7989.769,7.09975
7991.697,7.077621
7993.626,7.051082
7995.555,7.023508
7997.483,7.004028
7999.411,6.987551
8001.34,6.968845
8003.269,6.937259
8005.197,6.906583
8007.125,6.882447
8009.054,6.864515
8010.982,6.843474
8012.911,6.824659
8014.839,6.794111
8016.768,6.760945
8018.696,6.737264
8020.625,6.709023
8022.554,6.674875
8024.482,6.645329
8026.41,6.627984
8028.339,6.597597
8030.268,6.571249
8032.196,6.551242
8034.125,6.520519
8036.053,6.483637
8037.981,6.446808
8039.91,6.42574
8041.838,6.402287
8043.767,6.373392
8045.695,6.342882
8047.624,6.313834
8049.553,6.281726
8051.481,6.249688
8053.409,6.215444
8055.338,6.185237
8057.267,6.153804
8059.195,6.115668
8061.124,6.084892
8063.052,6.062738
8064.98,6.034928
8066.909,6.00456
8068.837,5.96951
8070.766,5.933797
8072.694,5.899387
8074.623,5.875134
8076.552,5.842179
8078.48,5.806367
8080.408,5.779933
8082.337,5.746793
8084.266,5.707092
8086.194,5.675136
8088.122,5.646837
8090.051,5.613936
8091.979,5.572329
8093.908,5.528604
8095.836,5.500823
8097.765,5.473146
8099.693,5.428832
8101.622,5.390259
8103.551,5.356389
8105.479,5.321597
8107.407,5.283763
8109.336,5.249695
8111.265,5.209459
8113.192,5.166018
8115.121,5.12854
8117.05,5.091826
8118.979,5.056083
8120.907,5.011476
8122.835,4.972883
8124.764,4.934409
8126.692,4.8864
8128.621,4.847291
8130.55,4.8192
8132.478,4.785659
8134.406,4.738595
8136.335,4.695999
8138.264,4.663439
8140.191,4.635691
8142.12,4.593644
8144.049,4.545098
8145.978,4.50903
8147.906,4.470295
8149.834,4.43284
8151.763,4.396664
8153.691,4.357043
8155.62,4.317399
8157.548,4.278708
8159.477,4.235892
8161.405,4.196671
8163.334,4.157722
8165.263,4.120574
8167.19,4.085327
8169.119,4.048423
8171.048,4.010684
8172.977,3.9842
8174.905,3.953107
8176.833,3.915329
8178.762,3.881655
8180.69,3.853392
8182.619,3.813983
8184.547,3.774621
8186.476,3.752226
8188.404,3.732864
8190.333,3.704568
8192.262,3.677131
8194.189,3.65515
8196.118,3.64285
8198.047,3.631181
8199.976,3.611799
8201.903,3.590785
8203.832,3.573771
8205.761,3.558894
8207.689,3.548354
8209.618,3.530278
8211.546,3.515483
8213.475,3.511103
8215.403,3.507381
8217.332,3.508671
8219.261,3.509527
8221.188,3.502729
8223.117,3.500535
8225.046,3.497804
8226.975,3.491899
8228.902,3.489013
8230.831,3.493872
8232.76,3.493908
8234.688,3.493587
8236.617,3.498737
8238.545,3.507032
8240.474,3.501858
8242.402,3.503614
8244.331,3.512283
8246.259,3.5099
8248.188,3.51566
8250.116,3.531908
8252.045,3.540454
8253.974,3.541117
8255.901,3.543515
8257.83,3.546623
8259.759,3.547302
8261.688,3.563235
8263.616,3.584501
8265.544,3.58943
8267.473,3.595783
8269.401,3.610545
8271.33,3.637628
8273.258,3.65997
8275.187,3.672547
8277.115,3.682535
8279.044,3.690213
8280.973,3.705516
8282.9,3.727018
8284.829,3.744946
8286.758,3.757727
8288.687,3.780527
8290.614,3.806101
8292.543,3.828248
8294.472,3.845139
8296.4,3.874826
8298.329,3.904305
8300.257,3.929255
8302.186,3.943891
8304.114,3.959803
8306.043,3.987171
8307.972,4.014114
8309.899,4.037286
8311.828,4.061887
8313.757,4.084271
8315.686,4.11439
8317.613,4.135427
8319.542,4.157461
8321.471,4.19047
8323.399,4.220155
8325.328,4.237216
8327.256,4.252762
8329.185,4.273385
8331.113,4.299632
8333.042,4.324222
8334.97,4.359136
8336.898,4.390132
8338.827,4.411139
8340.756,4.441521
8342.685,4.464842
8344.612,4.496504
8346.541,4.540878
8348.47,4.572559
8350.398,4.596427
8352.327,4.628777
8354.255,4.654983
8356.184,4.682947
8358.112,4.719471
8360.041,4.751547
8361.969,4.782966
8363.897,4.814882
8365.826,4.843106
8367.755,4.878645
8369.684,4.91538
8371.611,4.939794
8373.54,4.963447
8375.469,4.992406
8377.397,5.026303
8379.325,5.05845
8381.254,5.095048
8383.183,5.121368
8385.111,5.1356
8387.04,5.154719
8388.968,5.181248
8390.896,5.208253
8392.825,5.231697
8394.754,5.249116
8396.683,5.264832
8398.61,5.289091
8400.539,5.30235
8402.468,5.305853
8404.396,5.314457
8406.324,5.32908
8408.253,5.338039
8410.182,5.34198
8412.11,5.343139
8414.039,5.342295
8415.967,5.35174
8417.896,5.355857
8419.824,5.352312
8421.753,5.35712
8423.681,5.375569
8425.609,5.397165
8427.538,5.411111
8429.467,5.423656
8431.396,5.445875
8433.323,5.470086
8435.252,5.504888
8437.181,5.540189
8439.109,5.568761
8441.037,5.606051
8442.966,5.644202
8444.895,5.680102
8446.823,5.715063
8448.752,5.747418
8450.68,5.788705
8452.608,5.835556
8454.537,5.868745
8456.466,5.900721
8458.395,5.948798
8460.322,5.982461
8462.251,6.006425
8464.18,6.03397
8466.108,6.055902
8468.036,6.089499
8469.965,6.130743
8471.894,6.164151
8473.822,6.183373
8475.751,6.21689
8477.679,6.24966
8479.607,6.277966
8481.536,6.310966
8483.465,6.351059
8485.393,6.388698
8487.321,6.416916
8489.25,6.439065
8491.179,6.473153
8493.107,6.509344
8495.035,6.538063
8496.964,6.566363
8498.893,6.590128
8500.821,6.611132
8502.75,6.633846
8504.678,6.650005
8506.606,6.664748
8508.535,6.681178
8510.464,6.688582
8512.392,6.700255
8514.32,6.713321
8516.249,6.719912
8518.178,6.732391
8520.106,6.757613
8522.034,6.771523
8523.963,6.79329
8525.892,6.818355
8527.82,6.829598
8529.748,6.835963
8531.677,6.844496
8533.605,6.846674
8535.534,6.849893
8537.463,6.844402
8539.391,6.831324
8541.319,6.824032
8543.248,6.80948
8545.177,6.792469
8547.105,6.778766
8549.033,6.759638
8550.962,6.721574
8552.891,6.679609
8554.819,6.646709
8556.747,6.61189
8558.676,6.585158
8560.604,6.560638
8562.533,6.543273
8564.462,6.54231
8566.39,6.56087
8568.318,6.587762
8570.247,6.60375
8572.176,6.624053
8574.104,6.666998
8576.032,6.713356
8577.961,6.764544
8579.89,6.80871
8581.818,6.852897
8583.746,6.888072
8585.675,6.93757
8587.604,6.995634
8589.532,7.047327
8591.461,7.100652
8593.389,7.144295
8595.317,7.199646
8597.246,7.262577
8599.175,7.327455
8601.103,7.38543
8603.031,7.439236
8604.96,7.492896
8606.889,7.546707
8608.817,7.605652
8610.745,7.667408
8612.674,7.718648
8614.603,7.770729
8616.531,7.823608
8618.459,7.8833
8620.388,7.934934
8622.316,7.976013
8624.245,8.024202
8626.174,8.065841
8628.102,8.110593
8630.03,8.150237
8631.959,8.188556
8633.888,8.233936
8635.816,8.276241
8637.744,8.316792
8639.673,8.349358
8641.602,8.384662
8643.53,8.424853
8645.458,8.46009
8647.387,8.489161
8649.315,8.51147
8651.244,8.54225
8653.173,8.585607
8655.101,8.605122
8657.029,8.638939
8658.958,8.666791
8660.887,8.689081
8662.814,8.726624
8664.743,8.749378
8666.672,8.754208
8668.601,8.784817
8670.529,8.815359
8672.457,8.841689
8674.386,8.860934
8676.314,8.880732
8678.243,8.910213
8680.172,8.926444
8682.1,8.938951
8684.028,8.970765
8685.957,8.993281
8687.886,9.018984
8689.813,9.05514
8691.742,9.082637
8693.671,9.089261
8695.6,9.11955
8697.528,9.149598
8699.456,9.177885
8701.385,9.210308
8703.313,9.243014
8705.242,9.266494
8707.17,9.299932
8709.099,9.337968
8711.027,9.36599
8712.956,9.380736
8714.885,9.406517
8716.813,9.441667
8718.741,9.473783
8720.67,9.496777
8722.599,9.524781
8724.527,9.553789
8726.455,9.574471
8728.384,9.594718
8730.313,9.62234
8732.241,9.659702
8734.169,9.692893
8736.098,9.719837
8738.026,9.741883
8739.955,9.759897
8741.884,9.787191
8743.812,9.816206
8745.74,9.849492
8747.669,9.876722
8749.598,9.888764
8751.525,9.905547
8753.454,9.937501
8755.383,9.961607
8757.312,9.97437
8759.24,9.997382
8761.168,10.01918
8763.097,10.03439
8765.025,10.05545
8766.954,10.07773
8768.882,10.09176
8770.811,10.11335
8772.739,10.13082
8774.668,10.14538
8776.597,10.15715
8778.524,10.16765
8780.453,10.18801
8782.382,10.20224
8784.311,10.21777
8786.239,10.22911
8788.167,10.24596
8790.096,10.25876
8792.024,10.27077
8793.953,10.27962
8795.881,10.29588
8797.81,10.29367
8799.738,10.29909
8801.667,10.3186
8803.596,10.33002
8805.523,10.33038
8807.452,10.34195
8809.381,10.35573
8811.31,10.36893
8813.237,10.37113
8815.166,10.39777
8817.095,10.40516
8819.023,10.39741
8820.952,10.40982
8822.88,10.40967
8824.809,10.41546
8826.737,10.41881
8828.666,10.42128
8830.595,10.42746
8832.522,10.44543
8834.451,10.45376
8836.38,10.45288
8838.309,10.45516
8840.236,10.46177
8842.165,10.47384
8844.094,10.47221
8846.022,10.46344
8847.951,10.45775
8849.879,10.46841
8851.808,10.47791
8853.736,10.47389
8855.665,10.48386
8857.593,10.48893
8859.521,10.48646
8861.45,10.4914
8863.379,10.4987
8865.308,10.50129
8867.235,10.50955
8869.164,10.51513
8871.093,10.51405
8873.021,10.5012
8874.95,10.50135
8876.878,10.51041
8878.807,10.50922
8880.735,10.5035
8882.664,10.52105
8884.592,10.53039
8886.521,10.511
8888.449,10.50706
8890.378,10.50493
8892.307,10.51985
8894.234,10.52234
8896.163,10.51786
8898.092,10.53579
8900.021,10.52098
8901.948,10.50247
8903.877,10.50559
8905.806,10.52006
8907.734,10.53141
8909.663,10.51246
8911.591,10.49589
8913.52,10.50798
8915.448,10.50185
8917.377,10.49829
8919.306,10.49976
8921.233,10.50211
8923.162,10.50288
8925.091,10.49829
8927.02,10.49724
8928.947,10.50706
8930.876,10.51079
8932.805,10.51261
8934.733,10.51008
8936.662,10.48678
8938.59,10.48116
8940.519,10.50101
8942.447,10.49721
8944.376,10.50418
8946.304,10.51068
8948.232,10.49075
8950.161,10.48671
8952.09,10.49423
8954.019,10.50227
8955.946,10.50099
8957.875,10.49233
8959.804,10.49059
8961.732,10.49538
8963.661,10.49411
8965.589,10.50583
8967.518,10.50997
8969.446,10.50857
8971.375,10.50823
8973.303,10.50045
8975.231,10.49888
8977.16,10.50728
8979.089,10.50944
8981.018,10.51532
8982.945,10.51476
8984.874,10.51331
8986.803,10.51562
8988.731,10.52336
8990.659,10.51613
8992.588,10.5141
8994.517,10.51957
8996.445,10.52668
8998.374,10.52494
9000.302,10.52776
9002.23,10.5407
9004.159,10.54461
9006.088,10.53394
9008.017,10.53061
9009.944,10.52443
9011.873,10.52745
9013.802,10.53702
9015.73,10.53674
9017.658,10.54335
9019.587,10.55081
9021.516,10.54406
9023.444,10.54626
9025.373,10.55647
9027.301,10.57237
9029.229,10.56632
9031.158,10.55165
9033.087,10.54612
9035.015,10.5542
9036.943,10.55887
9038.872,10.54482
9040.801,10.54504
9042.729,10.55702
9044.657,10.56645
9046.586,10.57116
9048.515,10.56778
9050.443,10.56544
9052.372,10.57898
9054.3,10.58505
9056.229,10.57819
9058.157,10.57152
9060.086,10.56952
9062.014,10.57261
9063.942,10.57497
9065.871,10.5816
9067.8,10.59559
9069.729,10.59655
9071.656,10.5824
9073.585,10.58014
9075.514,10.59312
9077.442,10.58675
9079.37,10.5801
9081.299,10.57753
9083.228,10.58689
9085.156,10.58387
9087.085,10.58178
9089.013,10.59104
9090.941,10.59442
9092.87,10.59056
9094.799,10.60583
9096.727,10.60756
9098.655,10.59777
9100.584,10.59389
9102.513,10.58838
9104.441,10.59192
9106.369,10.59744
9108.298,10.59608
9110.227,10.58788
9112.155,10.57323
9114.084,10.56929
9116.012,10.58644
9117.94,10.58912
9119.869,10.58361
9121.798,10.58337
9123.726,10.58961
9125.654,10.59632
9127.583,10.58549
9129.512,10.57151
9131.44,10.57738
9133.368,10.58345
9135.297,10.58158
9137.226,10.58321
9139.154,10.56697
9141.082,10.56128
9143.011,10.56935
9144.939,10.56922
9146.868,10.56505
9148.797,10.56255
9150.725,10.55684
9152.653,10.54802
9154.582,10.55135
9156.511,10.54842
9158.439,10.54558
9160.367,10.56009
9162.296,10.56325
9164.225,10.55307
9166.153,10.53437
9168.081,10.53814
9170.01,10.55891
9171.938,10.55267
9173.867,10.5525
9175.796,10.54346
9177.724,10.53845
9179.652,10.54117
9181.581,10.5429
9183.51,10.5489
9185.438,10.52825
9187.366,10.52155
9189.295,10.53441
9191.224,10.52684
9193.152,10.51976
9195.08,10.50417
9197.009,10.4979
9198.938,10.50642
9200.866,10.50362
9202.795,10.5179
9204.723,10.51708
9206.651,10.48822
9208.58,10.48332
9210.509,10.48683
9212.437,10.49297
9214.365,10.4952
9216.294,10.48936
9218.223,10.47477
9220.151,10.47756
9222.079,10.47996
9224.008,10.47553
9225.937,10.46987
9227.865,10.46699
9229.793,10.46896
9231.722,10.46475
9233.65,10.47532
9235.579,10.47385
9237.508,10.47035
9239.436,10.48022
9241.364,10.47647
9243.293,10.47804
9245.222,10.46592
9247.15,10.46983
9249.078,10.45991
9251.007,10.43827
9252.936,10.43293
9254.864,10.44462
9256.792,10.44637
9258.721,10.44469
9260.649,10.4324
9262.578,10.41178
9264.507,10.40783
9266.435,10.43416
9268.363,10.43944
9270.292,10.42913
9272.221,10.40938
9274.148,10.40432
9276.077,10.41315
9278.006,10.40308
9279.935,10.40452
9281.863,10.40015
9283.791,10.39756
9285.72,10.40077
9287.648,10.39628
9289.577,10.37937
9291.506,10.37943
9293.434,10.40341
9295.362,10.40834
9297.291,10.40983
9299.22,10.38545
9301.147,10.37697
9303.076,10.39535
9305.005,10.41321
9306.934,10.40081
9308.862,10.396
9310.79,10.39616
9312.719,10.41289
9314.647,10.41342
9316.576,10.40237
9318.504,10.40619
9320.433,10.41194
9322.361,10.41385
9324.29,10.41135
9326.219,10.4031
9328.146,10.39262
9330.075,10.39907
9332.004,10.4035
9333.933,10.3984
9335.861,10.40643
9337.789,10.40805
9339.718,10.40361
9341.646,10.38636
9343.575,10.37039
9345.503,10.38031
9347.432,10.38619
9349.36,10.38254
9351.289,10.37217
9353.218,10.37712
9355.146,10.38623
9357.074,10.37758
9359.003,10.36861
9360.932,10.37461
9362.859,10.36749
9364.788,10.34144
9366.717,10.33544
9368.646,10.34336
9370.574,10.34151
9372.502,10.33133
9374.431,10.33241
9376.359,10.33266
9378.288,10.32469
9380.217,10.32514
9382.145,10.33232
9384.073,10.33529
9386.002,10.33175
9387.931,10.31853
9389.858,10.3183
9391.787,10.31777
9393.716,10.29951
9395.645,10.28629
9397.573,10.28627
9399.501,10.29126
9401.43,10.27854
9403.358,10.27054
9405.287,10.26683
9407.215,10.26252
9409.144,10.25361
9411.072,10.26084
9413.001,10.26661
9414.93,10.26682
9416.857,10.2611
9418.786,10.23936
9420.715,10.2316
9422.644,10.22948
9424.571,10.22142
9426.5,10.22281
9428.429,10.22513
9430.357,10.21052
9432.286,10.19995
9434.214,10.19043
9436.143,10.18456
9438.071,10.18064
9440.0,10.1717
9441.929,10.16779
9443.856,10.17065
9445.785,10.16196
9447.714,10.16183
9449.643,10.16783
9451.57,10.15762
9453.499,10.13477
9455.428,10.12376
9457.356,10.13125
9459.285,10.14782
9461.213,10.11557
9463.142,10.08735
9465.07,10.09332
9466.999,10.09
9468.927,10.09038
9470.855,10.0858
9472.784,10.08185
9474.713,10.07916
9476.642,10.0834
9478.569,10.08296
9480.498,10.07714
9482.427,10.06517
9484.355,10.05508
9486.284,10.05204
9488.212,10.05402
9490.141,10.04589
9492.069,10.04122
9493.998,10.03486
9495.926,10.01677
9497.854,10.02289
9499.783,10.03432
9501.712,10.02602
9503.641,10.00553
9505.568,10.00774
9507.497,10.03129
9509.426,10.0233
9511.354,9.998901
9513.282,10.00851
9515.211,10.00167
9517.14,10.0009
9519.068,9.997849
9520.997,9.987587
9522.925,9.982401
9524.854,9.98174
9526.782,9.97812
9528.711,9.978698
9530.64,9.974398
9532.567,9.958198
9534.496,9.952506
9536.425,9.967319
9538.354,9.972159
9540.281,9.967874
9542.21,9.953399
9544.139,9.937479
9546.067,9.922209
9547.996,9.919829
9549.924,9.919577
9551.853,9.906142
9553.781,9.895332
9555.71,9.900043
9557.638,9.898014
9559.566,9.904582
9561.495,9.88997
9563.424,9.881759
9565.353,9.878307
9567.28,9.884993
9569.209,9.870286
9571.138,9.857813
9573.066,9.869655
9574.995,9.87639
9576.923,9.863423
9578.852,9.859607
9580.78,9.848468
9582.709,9.839546
9584.637,9.839009
9586.565,9.846075
9588.494,9.84048
9590.423,9.844885
9592.352,9.831849
9594.279,9.826229
9596.208,9.830082
9598.137,9.834858
9600.065,9.827091
9601.993,9.83517
9603.922,9.845476
9605.851,9.845471
9607.779,9.857438
9609.708,9.864133
9611.636,9.864622
9613.564,9.868724
9615.493,9.867908
9617.422,9.877962
9619.351,9.886195
9621.278,9.894329
9623.207,9.902703
9625.136,9.905596
9627.064,9.907976
9628.992,9.916642
9630.921,9.939137
9632.85,9.955484
9634.778,9.93208
9636.707,9.918192
9638.635,9.94004
9640.563,9.934583
9642.492,9.918078
9644.421,9.941617
9646.349,9.9636
9648.277,9.954781
9650.206,9.974175
9652.135,10.00046
9654.063,10.00261
9655.991,10.0217
9657.92,10.03425
9659.849,10.0372
9661.777,10.02934
9663.706,10.03574
9665.634,10.05712
9667.563,10.06865
9669.491,10.06399
9671.42,10.07501
9673.348,10.06831
9675.276,10.08631
9677.205,10.10405
9679.134,10.10745
9681.063,10.11367
9682.99,10.10968
9684.919,10.12324
9686.848,10.12256
9688.776,10.14002
9690.704,10.151
9692.633,10.14701
9694.562,10.15912
9696.49,10.17017
9698.419,10.18119
9700.347,10.1838
9702.275,10.19088
9704.204,10.20049
9706.133,10.20551
9708.062,10.22023
9709.989,10.22337
9711.918,10.22192
9713.847,10.23318
9715.775,10.25164
9717.703,10.24689
9719.632,10.25672
9721.561,10.27103
9723.489,10.27971
9725.418,10.30052
9727.346,10.30235
9729.274,10.29896
9731.203,10.32496
9733.132,10.3167
9735.06,10.33533
9736.988,10.35004
9738.917,10.33816
9740.846,10.34757
9742.774,10.35831
9744.702,10.35567
9746.631,10.36134
9748.56,10.37373
9750.488,10.37853
9752.416,10.38416
9754.345,10.3852
9756.273,10.38806
9758.202,10.41183
9760.131,10.41018
9762.059,10.4053
9763.987,10.41631
9765.916,10.43296
9767.845,10.44099
9769.773,10.4227
9771.701,10.42975
9773.63,10.42793
9775.559,10.44053
9777.487,10.4482
9779.415,10.42944
9781.344,10.41322
9783.272,10.4128
9785.201,10.42876
9787.13,10.4385
9789.058,10.43198
9790.986,10.43637
9792.915,10.43577
9794.844,10.42812
9796.771,10.42085
9798.7,10.41733
9800.629,10.42626
9802.558,10.43584
9804.486,10.42701
9806.414,10.43114
9808.343,10.45335
9810.271,10.46136
9812.2,10.44559
9814.129,10.42096
9816.057,10.42281
9817.985,10.43646
9819.914,10.43337
9821.843,10.45217
9823.771,10.45835
9825.699,10.45622
9827.628,10.44769
9829.557,10.44452
9831.485,10.44989
9833.413,10.46414
9835.342,10.45922
9837.271,10.4801
9839.199,10.50783
9841.127,10.49524
9843.056,10.49706
9844.984,10.51579
9846.913,10.49912
9848.842,10.50694
9850.77,10.51319
9852.698,10.52201
9854.627,10.52141
9856.556,10.5305
9858.484,10.55365
9860.412,10.5646
9862.341,10.56454
9864.27,10.56636
9866.198,10.57989
9868.126,10.59835
9870.055,10.61983
9871.983,10.62191
9873.912,10.62489
9875.841,10.64708
9877.769,10.63983
9879.697,10.63205
9881.626,10.64488
9883.555,10.65003
9885.482,10.63847
9887.411,10.65186
9889.34,10.67418
9891.269,10.69133
9893.197,10.70269
9895.125,10.68261
9897.054,10.69627
9898.982,10.72623
9900.911,10.72969
9902.84,10.74012
9904.768,10.75625
9906.696,10.75182
9908.625,10.75736
9910.554,10.7602
9912.481,10.76168
9914.41,10.77389
9916.339,10.79272
9918.268,10.78131
9920.196,10.77924
9922.124,10.78277
9924.053,10.79617
9925.981,10.81526
9927.91,10.81765
9929.838,10.79907
9931.767,10.78687
9933.695,10.82505
9935.624,10.86912
9937.553,10.89087
9939.48,10.87739
9941.409,10.85351
9943.338,10.85155
9945.267,10.84663
9947.195,10.87026
9949.123,10.8742
9951.052,10.8824
9952.98,10.9065
9954.909,10.91821
9956.837,10.91896
9958.766,10.93487
9960.694,10.92743
9962.623,10.9177
9964.552,10.93315
9966.479,10.93273
9968.408,10.94535
9970.337,10.95406
9972.266,10.94395
9974.193,10.95032
9976.122,10.95157
9978.051,10.95445
9979.979,10.97313
9981.908,10.96973
9983.836,10.96704
9985.765,10.9955
9987.693,11.00377
9989.622,10.9903
9991.551,10.9783
9993.479,10.97251
9995.407,10.96972
9997.336,10.97218
9999.265,10.97951
10001.19,11.00783
10003.12,11.02419
10005.05,11.0241
10006.98,11.0045
10008.91,10.97898
10010.83,11.00246
10012.76,11.01803
10014.69,11.00899
10016.62,11.021
10018.55,11.0251
10020.48,11.01845
10022.41,11.03208
10024.33,11.04019
10026.26,11.04283
10028.19,11.05156
10030.12,11.06022
10032.05,11.06756
10033.98,11.06285
10035.91,11.0785
10037.83,11.07907
10039.76,11.08936
10041.69,11.09798
10043.62,11.09772
10045.55,11.08413
10047.48,11.09051
10049.41,11.10173
10051.33,11.12055
10053.26,11.12035
10055.19,11.10385
10057.12,11.09996
10059.05,11.10285
10060.98,11.12276
10062.9,11.13719
10064.83,11.14311
10066.76,11.14038
10068.69,11.13097
10070.62,11.15738
10072.55,11.11431
10074.48,11.0958
10076.4,11.11724
10078.33,11.13196
10080.26,11.14281
10082.19,11.14211
10084.12,11.13123
10086.05,11.13243
10087.98,11.15536
10089.9,11.17659
10091.83,11.15775
10093.76,11.13978
10095.69,11.14412
10097.62,11.1353
10099.55,11.146
10101.47,11.15373
10103.4,11.15812
10105.33,11.1569
10107.26,11.15367
10109.19,11.14646
10111.12,11.15216
10113.05,11.14057
10114.97,11.1355
10116.9,11.17587
10118.83,11.18137
10120.76,11.19413
10122.69,11.18399
10124.62,11.1761
10126.54,11.19095
10128.47,11.19599
10130.4,11.19233
10132.33,11.19628
10134.26,11.19246
10136.19,11.20191
10138.12,11.19444
10140.04,11.16115
10141.97,11.17975
10143.9,11.18499
10145.83,11.19849
10147.76,11.20088
10149.69,11.17818
10151.62,11.17438
10153.54,11.18155
10155.47,11.17756
10157.4,11.17545
10159.33,11.20615
10161.26,11.19669
10163.19,11.19767
10165.12,11.18228
10167.04,11.1786
10168.97,11.19296
10170.9,11.20459
10172.83,11.18437
10174.76,11.18059
10176.69,11.18669
10178.61,11.20696
10180.54,11.20518
10182.47,11.17939
10184.4,11.16386
10186.33,11.16974
10188.26,11.19442
10190.19,11.16608
10192.11,11.18774
10194.04,11.20082
10195.97,11.18227
10197.9,11.18275
10199.83,11.18377
10201.76,11.16893
10203.69,11.17575
10205.61,11.20584
10207.54,11.20727
10209.47,11.18851
10211.4,11.20809
10213.33,11.22166
10215.26,11.21915
10217.18,11.18244
10219.11,11.19139
10221.04,11.21303
10222.97,11.2064
10224.9,11.20299
10226.83,11.19514
10228.76,11.1861
10230.68,11.20066
10232.61,11.19577
10234.54,11.17083
10236.47,11.17747
10238.4,11.18112
10240.33,11.17638
10242.25,11.17032
10244.18,11.20304
10246.11,11.20721
10248.04,11.19767
10249.97,11.17529
10251.9,11.20318
10253.83,11.22357
10255.75,11.2152
10257.68,11.18352
10259.61,11.17298
10261.54,11.18636
10263.47,11.19995
10265.4,11.18546
10267.33,11.16808
10269.25,11.16831
10271.18,11.18445
10273.11,11.20109
10275.04,11.1981
10276.97,11.15254
10278.9,11.13583
10280.83,11.14515
10282.75,11.14619
10284.68,11.13301
10286.61,11.10611
10288.54,11.12172
10290.47,11.15419
10292.4,11.14134
10294.32,11.12737
10296.25,11.12711
10298.18,11.15635
10300.11,11.16153
10302.04,11.15548
10303.97,11.17256
10305.9,11.16599
10307.82,11.14723
10309.75,11.15086
10311.68,11.14604
10313.61,11.16445
10315.54,11.14564
10317.47,11.12252
10319.4,11.12741
10321.32,11.16389
10323.25,11.18458
10325.18,11.1664
10327.11,11.15828
10329.04,11.15186
10330.97,11.14972
10332.89,11.14506
10334.82,11.11324
10336.75,11.11323
10338.68,11.10673
10340.61,11.09491
10342.54,11.10231
10344.47,11.10431
10346.39,11.12635
10348.32,11.13521
10350.25,11.11141
10352.18,11.1102
10354.11,11.11567
10356.04,11.1107
10357.96,11.09506
10359.89,11.08371
10361.82,11.1136
10363.75,11.13011
10365.68,11.11205
10367.61,11.10622
10369.54,11.09248
10371.46,11.11853
10373.39,11.11765
10375.32,11.09427
10377.25,11.05253
10379.18,11.0439
10381.11,11.07824
10383.04,11.08651
10384.96,11.05506
10386.89,11.07193
10388.82,11.09455
10390.75,11.10396
10392.68,11.09628
10394.61,11.07324
10396.54,11.08441
10398.46,11.06008
10400.39,11.04532
10402.32,11.06777
10404.25,11.11337
10406.18,11.1078
10408.11,11.07291
10410.03,11.03753
10411.96,11.05146
10413.89,11.09081
10415.82,11.08304
10417.75,11.06119
10419.68,11.03218
10421.61,11.03829
10423.53,11.05573
10425.46,11.01792
10427.39,10.97854
10429.32,10.96251
10431.25,10.95791
10433.18,10.9621
10435.1,10.97331
10437.03,10.97414
10438.96,10.98431
10440.89,10.98166
10442.82,10.95848
10444.75,10.9766
10446.68,11.00589
10448.6,10.97804
10450.53,10.9563
10452.46,10.97584
10454.39,10.98198
10456.32,10.97656
10458.25,10.9855
10460.18,10.97769
10462.1,10.93204
10464.03,10.91794
10465.96,10.92371
10467.89,10.93384
10469.82,10.93705
10471.75,10.95695
10473.67,10.94777
10475.6,10.89696
10477.53,10.90416
10479.46,10.92481
10481.39,10.88326
10483.32,10.8563
10485.25,10.8913
10487.17,10.87387
10489.1,10.86668
10491.03,10.87352
10492.96,10.86154
10494.89,10.84105
10496.82,10.83072
10498.75,10.83397
10500.67,10.81076
10502.6,10.77542
10504.53,10.77244
10506.46,10.82326
10508.39,10.81777
10510.32,10.8013
10512.25,10.77051
10514.17,10.74793
10516.1,10.76076
10518.03,10.77288
10519.96,10.74288
10521.89,10.72854
10523.82,10.6978
10525.74,10.70793
10527.67,10.68336
10529.6,10.66093
10531.53,10.64096
10533.46,10.6481
10535.39,10.65605
10537.32,10.59871
10539.24,10.56524
10541.17,10.60956
10543.1,10.63246
10545.03,10.57965
10546.96,10.53692
10548.89,10.5264
10550.81,10.52032
10552.74,10.52028
10554.67,10.51847
10556.6,10.50506
10558.53,10.48534
10560.46,10.49015
10562.39,10.47147
10564.31,10.41604
10566.24,10.36728
10568.17,10.35291
10570.1,10.36486
10572.03,10.40389
10573.96,10.35708
10575.89,10.2873
10577.81,10.30483
10579.74,10.34245
10581.67,10.29314
10583.6,10.23621
10585.53,10.23812
10587.46,10.24075
10589.38,10.22602
10591.31,10.18263
10593.24,10.16705
10595.17,10.15872
10597.1,10.10417
10599.03,10.08024
10600.96,10.0592
10602.88,10.02217
10604.81,9.971562
10606.74,9.948581
10608.67,9.929509
10610.6,9.921166
10612.53,9.936978
10614.46,9.889782
10616.38,9.826907
10618.31,9.820117
10620.24,9.801068
10622.17,9.795576
10624.1,9.797101
10626.03,9.780714
10627.96,9.730423
10629.88,9.686903
10631.81,9.649122
10633.74,9.607749
10635.67,9.596591
10637.6,9.588798
10639.53,9.548777
10641.45,9.534684
10643.38,9.48569
10645.31,9.456198
10647.24,9.445338
10649.17,9.423428
10651.1,9.359211
10653.03,9.300831
10654.95,9.286446
10656.88,9.291598
10658.81,9.275038
10660.74,9.256454
10662.67,9.226135
10664.6,9.184083
10666.52,9.147533
10668.45,9.142431
10670.38,9.11676
10672.31,9.064621
10674.24,9.042711
10676.17,9.004589
10678.1,9.022719
10680.02,9.001945
10681.95,8.963673
10683.88,8.911278
10685.81,8.873112
10687.74,8.875113
10689.67,8.899648
10691.59,8.907356
10693.52,8.876153
10695.45,8.839549
10697.38,8.82513
10699.31,8.80062
10701.24,8.782407
10703.17,8.773812
10705.09,8.768526
10707.02,8.741245
10708.95,8.741496
10710.88,8.737206
10712.81,8.742953
10714.74,8.749669
10716.67,8.715383
10718.59,8.711893
10720.52,8.740951
10722.45,8.771852
10724.38,8.746411
10726.31,8.689955
10728.24,8.684596
10730.17,8.697515
10732.09,8.728119
10734.02,8.75246
10735.95,8.767743
10737.88,8.745817
10739.81,8.727448
10741.74,8.755502
10743.67,8.761977
10745.59,8.754181
10747.52,8.771424
10749.45,8.774019
10751.38,8.733356
10753.31,8.755345
10755.24,8.78568
10757.16,8.78652
10759.09,8.769354
10761.02,8.809654
10762.95,8.840058
10764.88,8.881482
10766.81,8.926364
10768.74,8.8794
10770.66,8.857672
10772.59,8.879473
10774.52,8.887922
10776.45,8.921906
10778.38,8.963023
10780.31,8.969083
10782.23,8.977402
10784.16,9.039693
10786.09,9.035334
10788.02,9.046427
10789.95,9.09455
10791.88,9.071058
10793.81,9.062881
10795.73,9.092949
10797.66,9.153597
10799.59,9.1806
10801.52,9.165802
10803.45,9.172898
10805.38,9.181612
10807.3,9.191535
10809.23,9.197985
10811.16,9.227395
10813.09,9.261625
10815.02,9.276875
10816.95,9.253927
10818.88,9.272921
10820.8,9.289455
10822.73,9.339032
10824.66,9.374293
10826.59,9.36835
10828.52,9.407657
10830.45,9.443587
10832.38,9.457399
10834.3,9.519386
10836.23,9.547524
10838.16,9.555335
10840.09,9.593118
10842.02,9.629146
10843.95,9.610287
10845.88,9.644082
10847.8,9.67935
10849.73,9.705346
10851.66,9.696255
10853.59,9.695246
10855.52,9.69005
10857.45,9.700167
10859.38,9.699682
10861.3,9.733754
10863.23,9.735953
10865.16,9.75002
10867.09,9.824135
10869.02,9.868272
10870.95,9.860548
10872.87,9.9105
10874.8,9.896114
10876.73,9.845507
10878.66,9.864625
10880.59,9.935592
10882.52,9.9765
10884.45,9.975639
10886.37,9.956338
10888.3,9.953239
10890.23,9.955511
10892.16,10.03576
10894.09,10.08272
10896.02,10.05744
10897.94,10.08284
10899.87,10.15996
10901.8,10.18242
10903.73,10.16469
10905.66,10.14559
10907.59,10.19136
10909.52,10.19826
10911.44,10.1899
10913.37,10.2446
10915.3,10.27949
10917.23,10.2661
10919.16,10.27723
10921.09,10.31468
10923.01,10.32398
10924.94,10.34486
10926.87,10.4024
10928.8,10.3569
10930.73,10.35258
10932.66,10.39008
10934.59,10.43007
10936.51,10.41303
10938.44,10.44438
10940.37,10.48483
10942.3,10.47571
10944.23,10.49251
10946.16,10.49768
10948.09,10.46859
10950.01,10.47005
10951.94,10.49593
10953.87,10.56072
10955.8,10.61175
10957.73,10.58536
10959.66,10.57808
10961.58,10.54963
10963.51,10.55352
10965.44,10.6376
10967.37,10.64073
10969.3,10.6063
10971.23,10.60812
10973.16,10.67476
10975.08,10.68664
10977.01,10.66807
10978.94,10.65274
10980.87,10.68425
10982.8,10.71189
10984.73,10.67694
10986.66,10.71407
10988.58,10.78948
10990.51,10.78887
10992.44,10.78759
10994.37,10.80884
10996.3,10.83017
10998.23,10.86182
11000.16,10.8556
11002.08,10.84392
11004.01,10.83622
11005.94,10.80901
11007.87,10.82996
11009.8,10.88128
11011.73,10.84886
11013.65,10.81279
11015.58,10.85369
11017.51,10.87183
11019.44,10.89331
11021.37,10.95665
11023.3,11.02044
11025.23,10.99241
11027.15,10.97036
11029.08,10.93854
11031.01,10.91855
11032.94,10.93182
11034.87,10.94575
11036.8,10.99293
11038.72,11.02899
11040.65,11.00769
11042.58,11.05072
11044.51,11.05915
11046.44,11.00161
11048.37,11.02604
11050.3,11.04722
11052.22,11.084
11054.15,11.08431
11056.08,11.02142
11058.01,11.03859
11059.94,11.02781
11061.87,10.98168
11063.79,10.96519
11065.72,10.99884
11067.65,11.05759
11069.58,11.07351
11071.51,11.06547
11073.44,11.10652
11075.37,11.10483
11077.29,11.06639
11079.22,11.0872
11081.15,11.13914
11083.08,11.10405
11085.01,11.07514
11086.94,11.10358
11088.87,11.10822
11090.79,11.08612
11092.72,11.10071
11094.65,11.11301
11096.58,11.14744
11098.51,11.15226
11100.44,11.13882
11102.37,11.10271
11104.29,11.1282
11106.22,11.14346
11108.15,11.10282
11110.08,11.09894
11112.01,11.09496
11113.94,11.16136
11115.87,11.15134
11117.79,11.09183
11119.72,11.14954
11121.65,11.20858
11123.58,11.15439
11125.51,11.10265
11127.44,11.09183
11129.36,11.11992
11131.29,11.12613
11133.22,11.17987
11135.15,11.2247
11137.08,11.18727
11139.01,11.1368
11140.94,11.13059
11142.86,11.19699
11144.79,11.2399
11146.72,11.27261
11148.65,11.26048
11150.58,11.23381
11152.51,11.18897
11154.43,11.14282
11156.36,11.1228
11158.29,11.16235
11160.22,11.18865
11162.15,11.23888
11164.08,11.24827
11166.01,11.26309
11167.93,11.23427
11169.86,11.23809
11171.79,11.28081
11173.72,11.30825
11175.65,11.28543
11177.58,11.33755
11179.5,11.30288
11181.43,11.24242
11183.36,11.25793
11185.29,11.3003
11187.22,11.28232
11189.15,11.29206
11191.08,11.36474
11193.0,11.36006
11194.93,11.29526
11196.86,11.26608
11198.79,11.26495
11200.72,11.29836
11202.65,11.33819
11204.58,11.35507
11206.5,11.3435
11208.43,11.34496
11210.36,11.3589
11212.29,11.42408
11214.22,11.38304
11216.15,11.33628
11218.08,11.39997
11220.0,11.39585
11221.93,11.38617
11223.86,11.37369
11225.79,11.40724
11227.72,11.43856
11229.65,11.46794
11231.58,11.47522
11233.5,11.42288
11235.43,11.37755
11237.36,11.41654
11239.29,11.47639
11241.22,11.48019
11243.15,11.40705
11245.07,11.387
11247.0,11.40934
11248.93,11.43478
11250.86,11.50771
11252.79,11.53759
11254.72,11.45744
11256.65,11.50423
11258.57,11.56834
11260.5,11.51937
11262.43,11.52304
11264.36,11.48672
11266.29,11.45043
11268.22,11.51375
11270.14,11.55056
11272.07,11.56946
11274.0,11.51424
11275.93,11.42404
11277.86,11.40446
11279.79,11.41776
11281.72,11.44952
11283.64,11.51372
11285.57,11.52168
11287.5,11.48672
11289.43,11.48164
11291.36,11.46318
11293.29,11.47607
11295.21,11.55487
11297.14,11.56478
11299.07,11.51352
11301.0,11.48329
11302.93,11.51438
11304.86,11.47293
11306.79,11.51097
11308.71,11.6011
11310.64,11.63691
11312.57,11.59582
11314.5,11.55318
11316.43,11.51109
11318.36,11.52907
11320.29,11.57238
11322.21,11.59134
11324.14,11.58807
11326.07,11.53343
11328.0,11.61343
11329.93,11.59171
11331.86,11.616
11333.79,11.64001
11335.71,11.60282
11337.64,11.50654
11339.57,11.54503
11341.5,11.60175
11343.43,11.63262
11345.36,11.65139
11347.28,11.63884
11349.21,11.55914
11351.14,11.56075
11353.07,11.60003
11355.0,11.60322
11356.93,11.56923
11358.86,11.55423
11360.78,11.54104
11362.71,11.54404
11364.64,11.60087
11366.57,11.65623
11368.5,11.68403
11370.43,11.64653
11372.36,11.57679
11374.28,11.57832
11376.21,11.63352
11378.14,11.68915
11380.07,11.63665
11382.0,11.56466
11383.93,11.59879
11385.85,11.67117
11387.78,11.71364
11389.71,11.72306
11391.64,11.69914
11393.57,11.65713
11395.5,11.63206
11397.43,11.61914
11399.35,11.628
11401.28,11.66872
11403.21,11.66765
11405.14,11.68386
11407.07,11.74044
11409.0,11.69072
11410.92,11.61202
11412.85,11.66771
11414.78,11.68406
11416.71,11.58599
11418.64,11.58585
11420.57,11.65416
11422.5,11.6993
11424.42,11.71696
11426.35,11.70942
11428.28,11.70309
11430.21,11.78879
11432.14,11.81536
11434.07,11.73622
11436.0,11.68728
11437.92,11.67414
11439.85,11.79065
11441.78,11.82391
11443.71,11.71358
11445.64,11.66673
11447.57,11.71217
11449.5,11.73528
11451.42,11.76205
11453.35,11.72739
11455.28,11.66381
11457.21,11.71511
11459.14,11.74708
11461.07,11.75215
11462.99,11.73648
11464.92,11.72031
11466.85,11.74251
11468.78,11.75264
11470.71,11.76595
11472.64,11.76414
11474.57,11.71635
11476.49,11.61419
11478.42,11.63253
11480.35,11.76993
11482.28,11.75414
11484.21,11.76121
11486.14,11.71781
11488.07,11.65924
11489.99,11.67858
11491.92,11.71209
11493.85,11.74426
11495.78,11.78161
11497.71,11.77636
11499.64,11.75914
11501.56,11.73168
11503.49,11.72278
11505.42,11.70496
11507.35,11.7567
11509.28,11.78301
11511.21,11.77309
11513.14,11.79292
11515.06,11.73311
11516.99,11.68101
11518.92,11.73159
11520.85,11.70824
11522.78,11.72274
11524.71,11.68541
11526.63,11.73911
11528.56,11.80705
11530.49,11.79522
11532.42,11.7931
11534.35,11.77546
11536.28,11.76701
11538.21,11.70989
11540.13,11.78008
11542.06,11.83553
11543.99,11.84458
11545.92,11.80853
11547.85,11.81355
11549.78,11.81894
11551.71,11.75053
11553.63,11.70428
11555.56,11.74609
11557.49,11.80164
11559.42,11.84135
11561.35,11.90996
11563.28,11.80605
11565.21,11.7626
11567.13,11.84313
11569.06,11.8602
11570.99,11.85603
11572.92,11.77478
11574.85,11.74525
11576.78,11.72678
11578.7,11.82784
11580.63,11.81517
11582.56,11.80322
11584.49,11.76308
11586.42,11.84113
11588.35,11.86942
11590.28,11.86178
11592.2,11.85361
11594.13,11.7891
11596.06,11.79536
11597.99,11.86145
11599.92,11.77897
11601.85,11.70836
11603.78,11.69493
11605.7,11.75964
11607.63,11.88601
11609.56,11.93088
11611.49,11.94583
11613.42,11.87506
11615.35,11.8343
11617.27,11.85479
11619.2,11.87026
11621.13,11.91203
11623.06,11.89189
11624.99,11.86323
11626.92,11.84716
11628.85,11.89486
11630.77,11.95049
11632.7,11.97213
11634.63,11.98728
11636.56,11.89793
11638.49,11.853
11640.42,11.87061
11642.34,11.84219
11644.27,11.87342
11646.2,11.93062
11648.13,11.99489
11650.06,11.90815
11651.99,11.91609
11653.92,11.95194
11655.84,11.91102
11657.77,11.89161
11659.7,11.81503
11661.63,11.8634
11663.56,11.9123
11665.49,11.93711
11667.42,11.93618
11669.34,11.92635
11671.27,11.95279
11673.2,11.99212
11675.13,11.85429
11677.06,11.78584
11678.99,11.90838
11680.92,11.97191
11682.84,11.9338
11684.77,11.8085
11686.7,11.7889
11688.63,11.81528
11690.56,11.9185
11692.49,11.87228
11694.41,11.78986
11696.34,11.87676
11698.27,11.86178
11700.2,11.87112
11702.13,11.82765
11704.06,11.80424
11705.99,11.83427
11707.91,11.80591
11709.84,11.83517
11711.77,11.86579
11713.7,11.84919
11715.63,11.82297
11717.56,11.87725
11719.48,11.88331
11721.41,11.78683
11723.34,11.77539
11725.27,11.73228
11727.2,11.75661
11729.13,11.78574
11731.06,11.81454
11732.98,11.88516
11734.91,11.9398
11736.84,11.8668
11738.77,11.78802
11740.7,11.86385
11742.63,11.86873
11744.56,11.85702
11746.48,11.8672
11748.41,11.92521
11750.34,11.93839
11752.27,11.8238
11754.2,11.87656
11756.13,11.89513
11758.05,11.83643
11759.98,11.7983
11761.91,11.78074
11763.84,11.78704
11765.77,11.7758
11767.7,11.78632
11769.63,11.76496
11771.55,11.73654
11773.48,11.76988
11775.41,11.86561
11777.34,11.87557
11779.27,11.9287
11781.2,11.80176
11783.13,11.72738
11785.05,11.8661
11786.98,11.83547
11788.91,11.85232
11790.84,11.73099
11792.77,11.72818
11794.7,11.801
11796.63,11.88447
11798.55,11.86646
11800.48,11.76151
11802.41,11.76166
11804.34,11.72513
11806.27,11.7269
11808.2,11.73942
11810.12,11.69475
11812.05,11.67794
11813.98,11.81852
11815.91,11.92625
11817.84,11.86671
11819.77,11.85475
11821.7,11.80574
11823.62,11.77356
11825.55,11.8178
11827.48,11.79064
11829.41,11.84956
11831.34,11.88426
11833.27,11.82383
11835.19,11.78168
11837.12,11.83223
11839.05,11.83127
11840.98,11.82961
11842.91,11.79676
11844.84,11.79383
11846.77,11.848
11848.69,11.98006
11850.62,11.85184
11852.55,11.84538
11854.48,11.79944
11856.41,11.82118
11858.34,11.80507
11860.27,11.83199
11862.19,11.8103
11864.12,11.71535
11866.05,11.69401
11867.98,11.7937
11869.91,11.78646
11871.84,11.77697
11873.76,11.83207
11875.69,11.84098
11877.62,11.80863
11879.55,11.81311
11881.48,12.04118
11883.41,11.95044
11885.34,11.77986
11887.26,11.72632
11889.19,11.75617
11891.12,11.92829
11893.05,11.97394
11894.98,11.85694
11896.91,11.92832
11898.83,12.03424
11900.76,11.97984
11902.69,11.84917
11904.62,11.90549
11906.55,11.82517
11908.48,11.71671
11910.41,11.75671
11912.33,11.8632
11914.26,11.81601
11916.19,11.74363
11918.12,11.73121
11920.05,11.86216
11921.98,11.91466
11923.91,11.9056
11925.83,11.90304
11927.76,11.86021
11929.69,11.93702
11931.62,11.94579
11933.55,11.82433
11935.48,11.86483
11937.41,11.88572
11939.33,11.75205
11941.26,11.7225
11943.19,11.77858
11945.12,11.73254
11947.05,11.69329
11948.98,11.69957
11950.9,11.67268
11952.83,11.76674
11954.76,11.9152
11956.69,11.94122
11958.62,11.87896
11960.55,11.84604
11962.48,11.78634
11964.4,11.82648
11966.33,11.82252
11968.26,11.68186
11970.19,11.80338
11972.12,11.90722
11974.05,11.83992
11975.98,11.90026
11977.9,11.80729
11979.83,11.74513
11981.76,11.78327
11983.69,11.7736
11985.62,11.71021
11987.55,11.64122
11989.47,11.65709
11991.4,11.72546
11993.33,11.65134
11995.26,11.58389
11997.19,11.64404
11999.12,11.85569
