Wavenumber,Intensity
3999.706,2.814378
4001.634,2.814034
4003.563,2.814523
4005.491,2.811674
4007.42,2.814844
4009.348,2.818172
4011.277,2.817738
4013.205,2.817542
4015.134,2.820618
4017.062,2.823588
4018.991,2.822322
4020.919,2.825348
4022.848,2.824519
4024.776,2.824135
4026.705,2.827139
4028.633,2.83287
4030.562,2.831078
4032.49,2.832572
4034.419,2.833005
4036.347,2.831559
4038.276,2.827692
4040.204,2.830042
4042.133,2.838114
4044.061,2.843967
4045.99,2.841539
4047.918,2.837311
4049.847,2.836847
4051.775,2.840649
4053.704,2.841438
4055.632,2.843548
4057.561,2.845402
4059.489,2.843624
4061.418,2.84213
4063.346,2.844756
4065.275,2.844443
4067.203,2.843753
4069.132,2.845434
4071.06,2.847359
4072.989,2.84709
4074.917,2.847245
4076.846,2.851608
4078.774,2.853954
4080.703,2.854473
4082.631,2.853162
4084.56,2.847599
4086.488,2.848046
4088.417,2.851466
4090.345,2.852853
4092.274,2.854601
4094.202,2.854472
4096.131,2.853157
4098.059,2.85484
4099.988,2.857229
4101.916,2.859695
4103.845,2.860515
4105.773,2.857884
4107.702,2.856515
4109.63,2.860605
4111.559,2.861974
4113.487,2.860023
4115.416,2.862895
4117.344,2.865945
4119.273,2.866736
4121.201,2.86379
4123.13,2.864145
4125.058,2.864837
4126.987,2.866314
4128.915,2.868264
4130.844,2.865119
4132.772,2.867761
4134.701,2.869436
4136.629,2.864502
4138.558,2.864214
4140.486,2.867481
4142.415,2.86613
4144.343,2.863267
4146.271,2.863012
4148.2,2.867328
4150.129,2.869631
4152.057,2.868973
4153.986,2.866188
4155.914,2.869906
4157.843,2.872189
4159.771,2.870129
4161.7,2.871262
4163.628,2.875224
4165.557,2.87813
4167.485,2.87748
4169.414,2.879119
4171.342,2.880647
4173.271,2.880845
4175.199,2.881703
4177.127,2.885016
4179.056,2.886178
4180.985,2.888151
4182.913,2.888718
4184.842,2.887678
4186.77,2.885644
4188.699,2.889925
4190.627,2.891693
4192.556,2.891651
4194.484,2.897825
4196.413,2.902232
4198.341,2.900896
4200.27,2.901238
4202.198,2.905411
4204.126,2.91087
4206.055,2.910454
4207.983,2.912139
4209.912,2.91661
4211.841,2.919034
4213.769,2.921311
4215.698,2.922421
4217.626,2.925057
4219.555,2.928208
4221.483,2.927904
4223.412,2.928613
4225.34,2.931479
4227.269,2.930061
4229.197,2.929752
4231.125,2.93189
4233.054,2.93467
4234.982,2.938776
4236.911,2.939933
4238.84,2.943135
4240.768,2.941439
4242.697,2.940193
4244.625,2.939267
4246.554,2.939641
4248.482,2.938396
4250.411,2.935824
4252.339,2.937133
4254.268,2.937617
4256.196,2.939552
4258.125,2.945218
4260.053,2.947157
4261.981,2.949677
4263.91,2.951233
4265.838,2.951947
4267.767,2.955569
4269.696,2.955519
4271.624,2.955031
4273.553,2.959993
4275.481,2.959563
4277.41,2.955103
4279.338,2.959032
4281.267,2.964727
4283.195,2.966694
4285.124,2.96699
4287.052,2.966033
4288.98,2.964801
4290.909,2.96618
4292.837,2.969913
4294.766,2.97044
4296.694,2.968251
4298.623,2.967155
4300.552,2.969128
4302.48,2.972195
4304.409,2.974008
4306.337,2.970945
4308.266,2.970955
4310.194,2.970986
4312.123,2.970313
4314.051,2.969454
4315.979,2.966703
4317.908,2.963835
4319.836,2.961722
4321.765,2.959506
4323.693,2.958743
4325.622,2.963365
4327.551,2.962871
4329.479,2.961407
4331.408,2.960004
4333.336,2.9622
4335.265,2.964898
4337.193,2.967668
4339.122,2.971972
4341.05,2.972792
4342.979,2.971453
4344.907,2.970073
4346.835,2.966583
4348.764,2.970893
4350.692,2.974599
4352.621,2.975692
4354.549,2.977412
4356.478,2.978851
4358.407,2.978582
4360.335,2.979074
4362.264,2.977091
4364.192,2.974606
4366.121,2.974885
4368.049,2.97816
4369.978,2.979079
4371.906,2.981588
4373.834,2.982711
4375.763,2.98235
4377.691,2.980395
4379.62,2.979227
4381.548,2.983527
4383.477,2.983639
4385.405,2.979844
4387.334,2.979173
4389.263,2.983246
4391.191,2.984626
4393.12,2.985132
4395.048,2.98285
4396.977,2.981878
4398.905,2.98341
4400.833,2.981256
4402.762,2.983377
4404.69,2.98839
4406.619,2.990259
4408.547,2.991487
4410.476,2.995186
4412.404,3.000284
4414.333,3.000767
4416.262,3.000059
4418.19,3.004921
4420.119,3.007413
4422.047,3.011541
4423.976,3.019312
4425.904,3.02446
4427.833,3.03205
4429.761,3.038311
4431.689,3.040283
4433.618,3.045557
4435.546,3.051813
4437.475,3.059918
4439.403,3.067713
4441.332,3.075516
4443.26,3.084057
4445.189,3.091392
4447.117,3.100538
4449.046,3.110129
4450.975,3.119739
4452.903,3.129673
4454.832,3.139233
4456.76,3.150318
4458.688,3.160951
4460.617,3.171741
4462.545,3.181682
4464.474,3.189594
4466.402,3.199371
4468.331,3.211547
4470.259,3.220774
4472.188,3.227838
4474.116,3.239013
4476.045,3.253082
4477.974,3.262678
4479.902,3.270968
4481.831,3.27865
4483.759,3.289778
4485.688,3.30124
4487.616,3.310506
4489.544,3.320848
4491.473,3.335952
4493.401,3.347678
4495.33,3.359131
4497.258,3.369711
4499.187,3.381185
4501.115,3.393251
4503.044,3.403252
4504.972,3.414512
4506.901,3.427535
4508.83,3.440428
4510.758,3.455237
4512.687,3.470354
4514.615,3.480207
4516.543,3.489718
4518.472,3.504996
4520.4,3.522428
4522.329,3.536054
4524.257,3.544706
4526.186,3.55519
4528.114,3.569799
4530.043,3.58173
4531.971,3.595735
4533.9,3.612874
4535.828,3.626609
4537.757,3.64171
4539.686,3.659127
4541.614,3.671054
4543.542,3.68445
4545.471,3.702434
4547.399,3.715781
4549.328,3.729759
4551.256,3.74389
4553.185,3.759956
4555.113,3.774355
4557.042,3.788563
4558.97,3.808042
4560.899,3.827051
4562.827,3.841468
4564.756,3.853748
4566.685,3.86524
4568.613,3.878772
4570.542,3.89459
4572.47,3.910017
4574.398,3.919048
4576.327,3.930655
4578.255,3.940022
4580.184,3.947377
4582.112,3.95889
4584.041,3.971244
4585.969,3.981514
4587.898,3.988044
4589.826,3.995666
4591.755,4.004018
4593.683,4.013263
4595.612,4.021486
4597.54,4.029949
4599.469,4.036902
4601.397,4.044032
4603.326,4.048602
4605.254,4.054847
4607.183,4.063772
4609.111,4.071184
4611.04,4.077729
4612.968,4.082539
4614.897,4.086617
4616.825,4.092251
4618.754,4.099816
4620.682,4.105685
4622.611,4.112201
4624.539,4.119466
4626.468,4.126594
4628.396,4.134103
4630.325,4.141643
4632.253,4.143634
4634.182,4.146287
4636.11,4.148475
4638.039,4.152568
4639.967,4.156115
4641.896,4.158695
4643.824,4.158799
4645.753,4.160107
4647.681,4.159548
4649.61,4.156852
4651.538,4.153054
4653.467,4.145168
4655.396,4.137511
4657.324,4.128933
4659.252,4.116428
4661.181,4.107227
4663.109,4.096991
4665.038,4.088646
4666.966,4.089155
4668.895,4.096477
4670.823,4.104201
4672.752,4.116859
4674.68,4.131804
4676.609,4.150173
4678.537,4.16738
4680.466,4.180437
4682.394,4.193798
4684.323,4.204458
4686.251,4.21255
4688.18,4.219502
4690.108,4.224882
4692.037,4.226214
4693.965,4.227561
4695.894,4.232023
4697.822,4.22972
4699.751,4.230322
4701.679,4.232742
4703.608,4.232213
4705.536,4.231101
4707.465,4.229035
4709.393,4.225832
4711.322,4.226549
4713.25,4.224135
4715.179,4.222453
4717.107,4.215969
4719.036,4.205661
4720.964,4.199613
4722.893,4.191146
4724.821,4.183744
4726.75,4.179542
4728.678,4.170094
4730.606,4.163837
4732.535,4.160945
4734.464,4.156495
4736.392,4.151155
4738.321,4.14953
4740.249,4.146699
4742.178,4.142214
4744.106,4.140381
4746.035,4.13457
4747.963,4.126414
4749.892,4.125819
4751.82,4.122918
4753.749,4.120554
4755.677,4.115829
4757.605,4.109514
4759.534,4.103297
4761.463,4.094416
4763.391,4.084213
4765.32,4.077906
4767.248,4.070518
4769.177,4.060338
4771.105,4.049901
4773.034,4.038897
4774.962,4.027002
4776.891,4.018004
4778.819,4.013236
4780.748,4.00861
4782.676,4.004979
4784.604,4.00398
4786.533,4.001276
4788.462,3.99969
4790.39,3.996723
4792.319,3.993724
4794.247,3.990064
4796.176,3.986693
4798.104,3.97693
4800.033,3.973078
4801.961,3.96767
4803.89,3.960091
4805.818,3.957335
4807.747,3.952695
4809.675,3.939525
4811.604,3.925292
4813.532,3.917334
4815.46,3.911321
4817.389,3.902407
4819.317,3.889287
4821.246,3.880566
4823.175,3.871531
4825.103,3.862106
4827.032,3.857438
4828.96,3.848993
4830.889,3.840945
4832.817,3.834761
4834.746,3.826968
4836.674,3.817919
4838.603,3.810379
4840.531,3.799453
4842.459,3.785368
4844.388,3.775329
4846.316,3.765287
4848.245,3.751472
4850.174,3.742688
4852.102,3.730951
4854.031,3.720047
4855.959,3.709694
4857.888,3.699374
4859.816,3.690253
4861.745,3.687985
4863.673,3.683716
4865.602,3.677047
4867.53,3.670035
4869.458,3.667182
4871.387,3.667714
4873.315,3.669015
4875.244,3.669804
4877.172,3.673793
4879.101,3.679093
4881.03,3.681727
4882.958,3.684597
4884.887,3.685889
4886.815,3.689903
4888.744,3.693064
4890.672,3.694668
4892.601,3.697405
4894.529,3.701827
4896.458,3.706
4898.386,3.709033
4900.314,3.711479
4902.243,3.712026
4904.171,3.715785
4906.1,3.717971
4908.028,3.7202
4909.957,3.722392
4911.886,3.721992
4913.814,3.723596
4915.743,3.722854
4917.671,3.7219
4919.6,3.719938
4921.528,3.718848
4923.457,3.720903
4925.385,3.719453
4927.313,3.716705
4929.242,3.714999
4931.17,3.715293
4933.099,3.715515
4935.027,3.716697
4936.956,3.717081
4938.885,3.712424
4940.813,3.708812
4942.742,3.707932
4944.67,3.702988
4946.599,3.694218
4948.527,3.682088
4950.456,3.66996
4952.384,3.654245
4954.313,3.636728
4956.241,3.617656
4958.169,3.598105
4960.098,3.579607
4962.026,3.562582
4963.955,3.554705
4965.883,3.553216
4967.812,3.559211
4969.74,3.564008
4971.669,3.572053
4973.598,3.577573
4975.526,3.581661
4977.455,3.585947
4979.383,3.590085
4981.312,3.59506
4983.24,3.602374
4985.168,3.611092
4987.097,3.617198
4989.025,3.625766
4990.954,3.638215
4992.882,3.647197
4994.811,3.655933
4996.739,3.667825
4998.668,3.683009
5000.597,3.690376
5002.525,3.69639
5004.454,3.703611
5006.382,3.709009
5008.311,3.714319
5010.239,3.719335
5012.167,3.722537
5014.096,3.721047
5016.024,3.719195
5017.953,3.719706
5019.881,3.726335
5021.81,3.729161
5023.738,3.729192
5025.667,3.736556
5027.596,3.743732
5029.524,3.748016
5031.452,3.751436
5033.381,3.752825
5035.31,3.7548
5037.238,3.756833
5039.167,3.759709
5041.095,3.760319
5043.023,3.758774
5044.952,3.756472
5046.88,3.757716
5048.809,3.758718
5050.737,3.758969
5052.666,3.754923
5054.595,3.748818
5056.523,3.742497
5058.451,3.736961
5060.38,3.732906
5062.309,3.733281
5064.237,3.729694
5066.166,3.730452
5068.094,3.731874
5070.022,3.731222
5071.951,3.732362
5073.879,3.733497
5075.808,3.728852
5077.736,3.727952
5079.665,3.729176
5081.593,3.727099
5083.522,3.727105
5085.45,3.727077
5087.379,3.720675
5089.308,3.718642
5091.236,3.715847
5093.165,3.71154
5095.093,3.710871
5097.021,3.711102
5098.95,3.709781
5100.878,3.710441
5102.807,3.71087
5104.735,3.714166
5106.664,3.718323
5108.592,3.720315
5110.521,3.723531
5112.449,3.727824
5114.378,3.725963
5116.307,3.726416
5118.235,3.731905
5120.163,3.735486
5122.092,3.738929
5124.021,3.741132
5125.949,3.741564
5127.877,3.741915
5129.806,3.74681
5131.734,3.75038
5133.663,3.7495
5135.591,3.749319
5137.52,3.746145
5139.448,3.742476
5141.377,3.740896
5143.305,3.738621
5145.234,3.733557
5147.162,3.731966
5149.091,3.72823
5151.02,3.721553
5152.948,3.715386
5154.876,3.715775
5156.805,3.717861
5158.733,3.713555
5160.662,3.711477
5162.59,3.71102
5164.519,3.714219
5166.447,3.711231
5168.376,3.710526
5170.304,3.712667
5172.233,3.711935
5174.161,3.710419
5176.09,3.706125
5178.019,3.704195
5179.947,3.705195
5181.875,3.706052
5183.804,3.706811
5185.732,3.706705
5187.661,3.700238
5189.589,3.702157
5191.518,3.702616
5193.446,3.702078
5195.375,3.701087
5197.303,3.708711
5199.232,3.706678
5201.16,3.70581
5203.089,3.706709
5205.018,3.715848
5206.946,3.725446
5208.874,3.719261
5210.803,3.709203
5212.731,3.705926
5214.66,3.7054
5216.588,3.706745
5218.517,3.708499
5220.445,3.70599
5222.374,3.707278
5224.302,3.716337
5226.231,3.722998
5228.159,3.713984
5230.088,3.715139
5232.016,3.720028
5233.945,3.719041
5235.873,3.72231
5237.802,3.724259
5239.73,3.723346
5241.659,3.722753
5243.587,3.734783
5245.516,3.739654
5247.444,3.73942
5249.373,3.740711
5251.301,3.73394
5253.229,3.73866
5255.158,3.747242
5257.087,3.738177
5259.015,3.733733
5260.944,3.739707
5262.872,3.744083
5264.801,3.749977
5266.729,3.737944
5268.658,3.736092
5270.586,3.731967
5272.515,3.72984
5274.443,3.729536
5276.372,3.726523
5278.3,3.730349
5280.229,3.736979
5282.157,3.731963
5284.086,3.733555
5286.014,3.736366
5287.943,3.731006
5289.871,3.738819
5291.8,3.739617
5293.729,3.72981
5295.657,3.726871
5297.585,3.726168
5299.514,3.726717
5301.442,3.721576
5303.371,3.716049
5305.299,3.7115
5307.228,3.71627
5309.156,3.715593
5311.085,3.711205
5313.013,3.717557
5314.941,3.725486
5316.87,3.735628
5318.799,3.74442
5320.727,3.752146
5322.656,3.757497
5324.584,3.758836
5326.513,3.768041
5328.441,3.775338
5330.37,3.765804
5332.298,3.764075
5334.227,3.75494
5336.155,3.751652
5338.084,3.757273
5340.012,3.74883
5341.94,3.728792
5343.869,3.732593
5345.798,3.730387
5347.726,3.70887
5349.655,3.690798
5351.583,3.676262
5353.512,3.678338
5355.44,3.666326
5357.369,3.647336
5359.297,3.641819
5361.226,3.636844
5363.154,3.6298
5365.083,3.619633
5367.011,3.608988
5368.939,3.599928
5370.868,3.589223
5372.797,3.586122
5374.725,3.587117
5376.654,3.586334
5378.582,3.577504
5380.511,3.56374
5382.439,3.563875
5384.368,3.563322
5386.296,3.565751
5388.225,3.551742
5390.153,3.540833
5392.082,3.534783
5394.01,3.536797
5395.938,3.526211
5397.867,3.514391
5399.796,3.498827
5401.724,3.491867
5403.652,3.486829
5405.581,3.477979
5407.51,3.464725
5409.438,3.465763
5411.367,3.459367
5413.295,3.447775
5415.224,3.433193
5417.152,3.412011
5419.081,3.39922
5421.009,3.392649
5422.938,3.392928
5424.866,3.389254
5426.795,3.384174
5428.723,3.389655
5430.651,3.384138
5432.58,3.374973
5434.509,3.37728
5436.437,3.376193
5438.366,3.368573
5440.294,3.373246
5442.223,3.371425
5444.151,3.364635
5446.08,3.370298
5448.008,3.364717
5449.937,3.360924
5451.865,3.351261
5453.793,3.346213
5455.722,3.350687
5457.65,3.350091
5459.579,3.345705
5461.508,3.347849
5463.436,3.342778
5465.365,3.337082
5467.293,3.336678
5469.222,3.336346
5471.15,3.328614
5473.079,3.324395
5475.007,3.329182
5476.936,3.326266
5478.864,3.31347
5480.792,3.311189
5482.721,3.307415
5484.649,3.304111
5486.578,3.29971
5488.507,3.297112
5490.435,3.294491
5492.363,3.302605
5494.292,3.303899
5496.221,3.294922
5498.149,3.296874
5500.078,3.299673
5502.006,3.297658
5503.935,3.297259
5505.863,3.298774
5507.792,3.303137
5509.72,3.301664
5511.648,3.300306
5513.577,3.30152
5515.505,3.305557
5517.434,3.308698
5519.362,3.30856
5521.291,3.308233
5523.22,3.30762
5525.148,3.301898
5527.077,3.303715
5529.005,3.304295
5530.934,3.303401
5532.862,3.303298
5534.791,3.303304
5536.719,3.301787
5538.647,3.297757
5540.576,3.29755
5542.504,3.299979
5544.433,3.299854
5546.361,3.297224
5548.29,3.29523
5550.219,3.295615
5552.147,3.298154
5554.076,3.298048
5556.004,3.298138
5557.933,3.297305
5559.861,3.299644
5561.79,3.30431
5563.718,3.307408
5565.646,3.310236
5567.575,3.314147
5569.503,3.318853
5571.432,3.326082
5573.36,3.334247
5575.289,3.336114
5577.218,3.342873
5579.146,3.348594
5581.074,3.352373
5583.003,3.357398
5584.932,3.360918
5586.86,3.362692
5588.789,3.364978
5590.717,3.36695
5592.646,3.361242
5594.574,3.358253
5596.502,3.359153
5598.431,3.35594
5600.359,3.350804
5602.288,3.345326
5604.216,3.337976
5606.145,3.331817
5608.073,3.3248
5610.002,3.319216
5611.931,3.313424
5613.859,3.304754
5615.788,3.30019
5617.716,3.296498
5619.645,3.292305
5621.573,3.287316
5623.501,3.280037
5625.43,3.273467
5627.358,3.266758
5629.287,3.264774
5631.215,3.257618
5633.144,3.250827
5635.072,3.246857
5637.001,3.245387
5638.93,3.240118
5640.858,3.232388
5642.786,3.224794
5644.715,3.216425
5646.644,3.211757
5648.572,3.202503
5650.5,3.193408
5652.429,3.185602
5654.357,3.176833
5656.286,3.173023
5658.214,3.169332
5660.143,3.164155
5662.071,3.161581
5664.0,3.163986
5665.929,3.164792
5667.857,3.166402
5669.785,3.169364
5671.714,3.170404
5673.643,3.172543
5675.571,3.173152
5677.5,3.17357
5679.428,3.177547
5681.356,3.182041
5683.285,3.186183
5685.213,3.188439
5687.142,3.193437
5689.07,3.197506
5690.999,3.201984
5692.927,3.209643
5694.856,3.213178
5696.784,3.216418
5698.713,3.223621
5700.642,3.230292
5702.57,3.234251
5704.499,3.239343
5706.427,3.248363
5708.355,3.255235
5710.284,3.260845
5712.212,3.266401
5714.141,3.269257
5716.069,3.270709
5717.998,3.269865
5719.926,3.265353
5721.855,3.259428
5723.783,3.253389
5725.712,3.243173
5727.641,3.228753
5729.569,3.21801
5731.497,3.209916
5733.426,3.203958
5735.354,3.201561
5737.283,3.199401
5739.211,3.194654
5741.14,3.191837
5743.068,3.190014
5744.997,3.186962
5746.925,3.182133
5748.854,3.176712
5750.782,3.170909
5752.711,3.168912
5754.639,3.167906
5756.568,3.165128
5758.496,3.165357
5760.425,3.165022
5762.354,3.163448
5764.282,3.160752
5766.21,3.159991
5768.139,3.156186
5770.067,3.154453
5771.996,3.154997
5773.924,3.156976
5775.853,3.157907
5777.781,3.159506
5779.71,3.161224
5781.638,3.161212
5783.567,3.159587
5785.495,3.162271
5787.424,3.163685
5789.353,3.163967
5791.281,3.163304
5793.209,3.163111
5795.138,3.162796
5797.066,3.166178
5798.995,3.166943
5800.923,3.163403
5802.852,3.163429
5804.78,3.1655
5806.709,3.168026
5808.637,3.170697
5810.566,3.172051
5812.494,3.174213
5814.423,3.175675
5816.352,3.177182
5818.28,3.179012
5820.208,3.177853
5822.137,3.178846
5824.065,3.182127
5825.994,3.184846
5827.922,3.190351
5829.851,3.19512
5831.779,3.198412
5833.708,3.202795
5835.636,3.206822
5837.565,3.21003
5839.493,3.216443
5841.422,3.221361
5843.35,3.229486
5845.279,3.237583
5847.207,3.242379
5849.136,3.252542
5851.064,3.267311
5852.993,3.280573
5854.921,3.293831
5856.85,3.313442
5858.778,3.336338
5860.707,3.360905
5862.635,3.386815
5864.563,3.408535
5866.492,3.438322
5868.421,3.472245
5870.349,3.509453
5872.278,3.548015
5874.206,3.590651
5876.135,3.638413
5878.063,3.687492
5879.992,3.735469
5881.92,3.786206
5883.849,3.834089
5885.777,3.879407
5887.706,3.927434
5889.634,3.97625
5891.563,4.016868
5893.491,4.055621
5895.42,4.089525
5897.348,4.112384
5899.277,4.136822
5901.205,4.164737
5903.134,4.197
5905.063,4.232475
5906.991,4.264184
5908.919,4.302
5910.848,4.350888
5912.776,4.406881
5914.705,4.468423
5916.633,4.528859
5918.562,4.596442
5920.49,4.676392
5922.419,4.757428
5924.347,4.83865
5926.276,4.916564
5928.204,4.997569
5930.133,5.079907
5932.061,5.158055
5933.99,5.234063
5935.918,5.304998
5937.847,5.372506
5939.775,5.439532
5941.704,5.503321
5943.632,5.564424
5945.561,5.620552
5947.489,5.678709
5949.418,5.738821
5951.346,5.794171
5953.274,5.845103
5955.203,5.896697
5957.132,5.948435
5959.06,6.00776
5960.989,6.068715
5962.917,6.126402
5964.846,6.181939
5966.774,6.241092
5968.703,6.293021
5970.631,6.346908
5972.56,6.401054
5974.488,6.454495
5976.417,6.503545
5978.345,6.553567
5980.273,6.601903
5982.202,6.650102
5984.131,6.69265
5986.059,6.741749
5987.988,6.787595
5989.916,6.831702
5991.845,6.871199
5993.773,6.913114
5995.702,6.953587
5997.63,6.995
5999.559,7.032866
6001.487,7.069344
6003.416,7.103196
6005.344,7.14262
6007.272,7.181764
6009.201,7.22399
6011.13,7.260775
6013.058,7.29386
6014.986,7.323374
6016.915,7.35869
6018.844,7.392138
6020.772,7.426087
6022.701,7.457238
6024.629,7.488634
6026.558,7.520032
6028.486,7.550947
6030.415,7.577946
6032.343,7.604987
6034.271,7.631109
6036.2,7.66056
6038.129,7.684235
6040.057,7.707407
6041.985,7.72998
6043.914,7.755992
6045.843,7.779944
6047.771,7.802368
6049.7,7.825283
6051.628,7.847901
6053.557,7.868104
6055.485,7.89154
6057.414,7.910226
6059.342,7.927163
6061.271,7.945515
6063.199,7.965257
6065.128,7.978509
6067.056,7.999889
6068.984,8.016043
6070.913,8.02579
6072.842,8.038714
6074.77,8.060604
6076.698,8.077922
6078.627,8.09028
6080.556,8.102578
6082.484,8.117285
6084.413,8.128328
6086.341,8.141153
6088.27,8.150257
6090.198,8.161703
6092.126,8.171453
6094.055,8.181952
6095.983,8.187747
6097.912,8.198122
6099.841,8.206239
6101.769,8.216751
6103.697,8.227996
6105.626,8.239429
6107.555,8.246007
6109.483,8.255492
6111.412,8.263573
6113.34,8.270368
6115.269,8.283378
6117.197,8.294268
6119.125,8.304825
6121.054,8.321986
6122.982,8.331768
6124.911,8.344726
6126.84,8.356634
6128.768,8.371487
6130.696,8.388254
6132.625,8.404593
6134.554,8.420485
6136.482,8.438881
6138.41,8.454379
6140.339,8.470161
6142.268,8.48306
6144.196,8.497973
6146.125,8.512063
6148.053,8.526995
6149.981,8.539987
6151.91,8.558065
6153.839,8.572016
6155.767,8.587917
6157.695,8.603568
6159.624,8.616398
6161.553,8.630729
6163.481,8.648811
6165.409,8.662518
6167.338,8.675185
6169.267,8.688105
6171.195,8.705112
6173.124,8.722546
6175.052,8.737926
6176.98,8.743561
6178.909,8.755851
6180.837,8.767799
6182.766,8.779823
6184.694,8.792255
6186.623,8.804874
6188.552,8.809864
6190.48,8.820248
6192.408,8.828642
6194.337,8.836989
6196.266,8.846476
6198.194,8.857946
6200.123,8.862582
6202.051,8.871634
6203.979,8.881151
6205.908,8.889425
6207.836,8.899939
6209.765,8.90496
6211.693,8.906813
6213.622,8.916438
6215.551,8.924964
6217.479,8.9369
6219.407,8.940701
6221.336,8.94342
6223.265,8.951289
6225.193,8.95738
6227.121,8.961829
6229.05,8.969461
6230.979,8.974153
6232.907,8.979226
6234.835,8.981274
6236.764,8.98363
6238.692,8.984894
6240.621,8.992599
6242.549,8.998623
6244.478,9.001659
6246.406,9.002257
6248.335,9.010816
6250.264,9.013089
6252.192,9.010541
6254.12,9.005704
6256.049,9.010582
6257.978,9.01656
6259.906,9.022424
6261.834,9.022478
6263.763,9.025344
6265.691,9.028316
6267.62,9.034595
6269.548,9.032969
6271.477,9.034577
6273.405,9.037637
6275.334,9.034078
6277.263,9.039536
6279.191,9.045819
6281.119,9.049253
6283.048,9.055841
6284.977,9.05677
6286.905,9.059363
6288.833,9.057368
6290.762,9.058199
6292.69,9.058565
6294.619,9.060305
6296.547,9.062734
6298.476,9.066098
6300.404,9.065715
6302.333,9.068437
6304.262,9.069988
6306.19,9.065765
6308.118,9.06291
6310.047,9.064547
6311.976,9.065936
6313.904,9.07022
6315.832,9.071452
6317.761,9.071356
6319.689,9.066326
6321.618,9.064754
6323.546,9.065218
6325.475,9.059958
6327.403,9.051923
6329.332,9.050278
6331.26,9.046007
6333.189,9.043382
6335.117,9.038787
6337.046,9.035132
6338.975,9.034278
6340.903,9.025855
6342.831,9.017442
6344.76,9.012515
6346.688,9.004929
6348.617,8.998924
6350.545,8.995045
6352.474,8.990984
6354.402,8.982203
6356.331,8.973763
6358.259,8.965483
6360.188,8.953777
6362.116,8.94563
6364.045,8.93666
6365.974,8.924763
6367.902,8.912147
6369.83,8.895667
6371.759,8.876618
6373.688,8.858832
6375.616,8.8456
6377.544,8.835546
6379.473,8.830461
6381.401,8.818618
6383.33,8.817366
6385.258,8.816493
6387.187,8.810941
6389.115,8.807627
6391.044,8.804572
6392.973,8.795376
6394.901,8.790404
6396.829,8.784574
6398.758,8.774961
6400.687,8.766446
6402.615,8.752846
6404.543,8.733383
6406.472,8.716909
6408.4,8.696686
6410.329,8.676581
6412.257,8.657517
6414.186,8.634493
6416.114,8.616563
6418.043,8.612046
6419.971,8.600503
6421.9,8.580843
6423.828,8.571467
6425.757,8.569542
6427.686,8.564838
6429.614,8.551336
6431.542,8.541496
6433.471,8.541017
6435.399,8.526133
6437.328,8.509521
6439.256,8.489908
6441.185,8.477108
6443.113,8.455814
6445.042,8.428885
6446.97,8.406162
6448.898,8.381232
6450.827,8.34812
6452.756,8.323807
6454.685,8.297088
6456.613,8.268769
6458.541,8.235391
6460.47,8.196334
6462.398,8.148214
6464.327,8.091445
6466.255,8.029352
6468.184,7.959466
6470.112,7.881684
6472.041,7.801901
6473.969,7.721671
6475.897,7.649334
6477.826,7.581066
6479.755,7.52992
6481.684,7.502952
6483.612,7.493679
6485.54,7.49615
6487.469,7.505116
6489.397,7.524515
6491.326,7.548002
6493.254,7.572948
6495.183,7.598997
6497.111,7.621497
6499.04,7.646825
6500.968,7.674934
6502.896,7.695808
6504.825,7.711645
6506.754,7.728223
6508.682,7.748789
6510.61,7.767858
6512.539,7.781258
6514.468,7.798673
6516.396,7.815079
6518.325,7.826073
6520.253,7.835848
6522.182,7.848444
6524.11,7.859191
6526.039,7.871446
6527.967,7.880979
6529.896,7.888241
6531.824,7.899386
6533.753,7.911056
6535.681,7.91549
6537.609,7.917706
6539.538,7.922715
6541.467,7.931115
6543.396,7.935525
6545.324,7.941368
6547.252,7.948229
6549.181,7.954415
6551.109,7.954378
6553.038,7.958655
6554.966,7.967152
6556.895,7.975358
6558.823,7.97709
6560.752,7.981489
6562.68,7.989987
6564.608,7.999522
6566.537,8.000975
6568.466,8.01252
6570.394,8.02489
6572.323,8.034828
6574.251,8.039416
6576.18,8.042179
6578.108,8.046249
6580.037,8.050382
6581.965,8.052811
6583.894,8.062773
6585.822,8.065461
6587.751,8.066236
6589.679,8.07198
6591.607,8.0723
6593.536,8.073338
6595.465,8.077829
6597.393,8.079119
6599.321,8.076922
6601.25,8.073856
6603.179,8.072889
6605.107,8.075406
6607.036,8.077879
6608.964,8.075341
6610.893,8.076059
6612.821,8.071445
6614.75,8.071663
6616.678,8.070077
6618.606,8.065989
6620.535,8.057179
6622.464,8.051221
6624.392,8.043415
6626.32,8.040721
6628.249,8.039339
6630.178,8.036538
6632.106,8.03418
6634.035,8.028903
6635.963,8.017647
6637.892,8.010262
6639.82,8.006609
6641.749,8.001813
6643.677,7.994232
6645.605,7.985464
6647.534,7.975911
6649.463,7.973503
6651.391,7.963239
6653.319,7.955933
6655.248,7.946815
6657.177,7.935446
6659.105,7.928372
6661.034,7.91766
6662.962,7.903715
6664.891,7.895615
6666.819,7.886578
6668.748,7.876614
6670.676,7.864479
6672.604,7.852879
6674.533,7.842317
6676.462,7.831725
6678.39,7.82155
6680.318,7.809432
6682.247,7.795567
6684.176,7.782519
6686.104,7.769214
6688.032,7.753512
6689.961,7.740045
6691.89,7.7263
6693.818,7.71604
6695.747,7.70466
6697.675,7.688768
6699.604,7.671481
6701.532,7.658241
6703.46,7.640011
6705.389,7.623942
6707.317,7.610835
6709.246,7.592889
6711.175,7.574178
6713.103,7.561089
6715.031,7.546266
6716.96,7.528453
6718.889,7.512731
6720.817,7.494243
6722.746,7.477375
6724.674,7.462541
6726.603,7.447288
6728.531,7.430604
6730.459,7.416706
6732.388,7.400061
6734.316,7.386369
6736.245,7.37192
6738.174,7.354248
6740.102,7.332155
6742.03,7.318489
6743.959,7.304017
6745.888,7.285965
6747.816,7.275325
6749.745,7.260572
6751.673,7.242513
6753.602,7.227568
6755.53,7.210279
6757.458,7.194793
6759.387,7.183076
6761.315,7.163946
6763.244,7.138886
6765.173,7.125249
6767.101,7.111252
6769.029,7.091598
6770.958,7.070361
6772.887,7.051401
6774.815,7.030577
6776.743,7.007815
6778.672,6.983231
6780.601,6.956761
6782.529,6.930507
6784.458,6.904934
6786.386,6.88169
6788.314,6.853781
6790.243,6.828023
6792.171,6.80364
6794.1,6.767778
6796.028,6.73378
6797.957,6.706499
6799.886,6.676442
6801.814,6.642559
6803.742,6.616754
6805.671,6.588429
6807.6,6.556781
6809.528,6.528343
6811.457,6.499852
6813.385,6.472331
6815.313,6.442718
6817.242,6.418345
6819.17,6.390592
6821.099,6.358514
6823.027,6.327096
6824.956,6.296013
6826.885,6.264928
6828.813,6.22886
6830.741,6.197024
6832.67,6.178694
6834.599,6.160982
6836.527,6.138608
6838.455,6.122083
6840.384,6.103796
6842.313,6.088734
6844.241,6.076938
6846.169,6.065983
6848.098,6.052783
6850.026,6.037387
6851.955,6.019791
6853.884,6.002592
6855.812,5.983067
6857.74,5.967233
6859.669,5.952318
6861.598,5.938659
6863.526,5.922462
6865.454,5.90411
6867.383,5.885848
6869.312,5.867361
6871.24,5.852387
6873.168,5.83704
6875.097,5.812059
6877.025,5.794563
6878.954,5.774807
6880.882,5.752272
6882.811,5.73065
6884.739,5.709557
6886.668,5.686374
6888.597,5.65944
6890.525,5.633217
6892.453,5.615586
6894.382,5.597336
6896.311,5.574881
6898.239,5.555511
6900.167,5.539278
6902.096,5.523154
6904.024,5.509588
6905.953,5.48982
6907.881,5.474524
6909.81,5.466241
6911.738,5.449647
6913.667,5.425646
6915.596,5.408562
6917.524,5.392403
6919.452,5.373478
6921.381,5.352728
6923.31,5.330335
6925.238,5.309195
6927.166,5.285978
6929.095,5.257816
6931.023,5.233292
6932.952,5.204081
6934.88,5.174973
6936.809,5.147774
6938.737,5.121232
6940.666,5.089597
6942.594,5.059916
6944.523,5.032959
6946.451,5.016553
6948.38,5.001767
6950.309,4.986715
6952.237,4.973631
6954.165,4.970807
6956.094,4.967862
6958.022,4.960152
6959.951,4.956548
6961.879,4.957609
6963.808,4.953232
6965.736,4.952689
6967.665,4.951381
6969.593,4.947044
6971.521,4.943761
6973.45,4.948182
6975.379,4.945456
6977.308,4.939193
6979.236,4.938549
6981.164,4.939098
6983.093,4.934238
6985.021,4.928468
6986.95,4.92223
6988.878,4.913392
6990.807,4.904099
6992.735,4.892454
6994.664,4.879964
6996.592,4.878613
6998.521,4.875163
7000.449,4.861599
7002.378,4.850008
7004.307,4.83832
7006.235,4.825207
7008.163,4.80465
7010.092,4.795377
7012.021,4.787037
7013.949,4.772478
7015.877,4.758214
7017.806,4.748319
7019.734,4.738403
7021.663,4.732005
7023.591,4.73093
7025.52,4.72412
7027.448,4.723176
7029.377,4.726551
7031.305,4.727965
7033.234,4.727492
7035.162,4.728467
7037.091,4.72985
7039.02,4.729642
7040.948,4.729386
7042.876,4.720475
7044.805,4.708828
7046.733,4.697924
7048.662,4.677556
7050.59,4.64604
7052.519,4.615897
7054.447,4.590473
7056.376,4.552622
7058.304,4.518324
7060.232,4.499227
7062.161,4.486663
7064.09,4.476581
7066.019,4.487442
7067.947,4.511135
7069.875,4.544199
7071.804,4.582834
7073.732,4.618601
7075.661,4.658887
7077.589,4.702939
7079.518,4.745962
7081.446,4.779244
7083.375,4.804471
7085.303,4.830653
7087.231,4.855736
7089.16,4.879734
7091.089,4.904091
7093.018,4.926137
7094.946,4.946012
7096.874,4.966781
7098.803,4.990386
7100.731,5.019227
7102.66,5.040236
7104.588,5.073064
7106.517,5.112526
7108.445,5.140157
7110.374,5.159314
7112.302,5.189977
7114.23,5.222148
7116.159,5.261187
7118.088,5.306713
7120.016,5.317941
7121.944,5.336321
7123.873,5.350234
7125.802,5.36372
7127.73,5.378819
7129.659,5.382227
7131.587,5.372763
7133.516,5.3635
7135.444,5.35997
7137.373,5.340427
7139.301,5.318855
7141.229,5.29724
7143.158,5.263177
7145.087,5.231285
7147.015,5.185431
7148.943,5.139517
7150.872,5.089042
7152.801,5.025478
7154.729,4.949103
7156.658,4.868661
7158.586,4.767135
7160.515,4.671526
7162.443,4.559454
7164.372,4.447556
7166.3,4.352036
7168.229,4.270669
7170.157,4.216847
7172.086,4.184864
7174.014,4.187077
7175.942,4.217476
7177.871,4.260352
7179.8,4.300999
7181.729,4.383959
7183.657,4.45104
7185.585,4.516228
7187.514,4.575015
7189.442,4.640678
7191.371,4.706377
7193.299,4.784823
7195.228,4.862298
7197.156,4.926042
7199.085,4.988572
7201.013,5.060016
7202.941,5.140519
7204.87,5.230222
7206.799,5.289092
7208.727,5.34985
7210.655,5.410971
7212.584,5.473701
7214.513,5.534971
7216.441,5.598933
7218.37,5.666135
7220.298,5.741057
7222.227,5.790915
7224.155,5.853884
7226.083,5.934294
7228.012,5.999273
7229.94,6.053757
7231.869,6.154583
7233.798,6.209897
7235.726,6.245052
7237.654,6.290903
7239.583,6.343775
7241.512,6.414272
7243.44,6.495661
7245.369,6.531588
7247.297,6.577072
7249.226,6.632889
7251.154,6.690243
7253.083,6.760651
7255.011,6.814673
7256.939,6.859086
7258.868,6.916587
7260.797,6.976902
7262.725,7.042674
7264.653,7.098869
7266.582,7.15623
7268.511,7.208886
7270.439,7.263275
7272.368,7.32547
7274.296,7.38441
7276.225,7.435267
7278.153,7.490025
7280.082,7.543506
7282.01,7.598948
7283.938,7.650306
7285.867,7.709315
7287.796,7.774387
7289.724,7.821769
7291.652,7.863134
7293.581,7.939747
7295.51,7.992558
7297.438,8.022641
7299.366,8.087524
7301.295,8.135468
7303.224,8.182158
7305.152,8.237149
7307.081,8.311921
7309.009,8.350689
7310.938,8.405598
7312.866,8.45202
7314.794,8.489631
7316.723,8.536429
7318.651,8.576781
7320.58,8.617664
7322.509,8.66477
7324.437,8.713362
7326.365,8.744851
7328.294,8.813141
7330.223,8.81076
7332.151,8.820332
7334.08,8.836421
7336.008,8.870711
7337.937,8.893399
7339.865,8.947753
7341.793,8.961658
7343.722,8.980835
7345.65,8.991808
7347.579,9.014516
7349.508,9.0351
7351.436,9.044393
7353.364,9.069777
7355.293,9.12432
7357.222,9.142852
7359.15,9.155425
7361.079,9.197678
7363.007,9.226464
7364.936,9.244542
7366.864,9.278395
7368.792,9.317911
7370.721,9.340578
7372.649,9.355778
7374.578,9.403652
7376.507,9.441057
7378.435,9.452715
7380.363,9.492265
7382.292,9.518229
7384.221,9.530157
7386.149,9.547713
7388.077,9.565965
7390.006,9.594772
7391.935,9.614377
7393.863,9.63277
7395.792,9.646288
7397.72,9.664033
7399.648,9.677745
7401.577,9.686347
7403.505,9.700065
7405.434,9.71612
7407.362,9.722475
7409.291,9.725905
7411.22,9.734194
7413.148,9.743477
7415.076,9.759934
7417.005,9.774073
7418.934,9.781286
7420.862,9.783715
7422.791,9.780418
7424.719,9.785564
7426.647,9.797455
7428.576,9.800211
7430.504,9.80625
7432.433,9.809834
7434.361,9.816049
7436.29,9.823612
7438.219,9.823485
7440.147,9.828691
7442.075,9.832644
7444.004,9.840223
7445.933,9.840705
7447.861,9.841929
7449.789,9.852795
7451.718,9.851229
7453.646,9.854334
7455.575,9.863817
7457.503,9.862728
7459.432,9.866542
7461.36,9.874753
7463.289,9.876266
7465.218,9.880914
7467.146,9.882568
7469.074,9.885276
7471.003,9.889262
7472.932,9.885612
7474.86,9.889922
7476.788,9.893419
7478.717,9.894317
7480.646,9.889587
7482.574,9.887789
7484.502,9.893033
7486.431,9.892196
7488.359,9.885837
7490.288,9.891028
7492.216,9.890966
7494.145,9.893202
7496.073,9.897642
7498.002,9.892394
7499.931,9.885122
7501.859,9.881844
7503.787,9.879817
7505.716,9.880443
7507.645,9.879847
7509.573,9.882794
7511.501,9.882487
7513.43,9.877786
7515.358,9.877582
7517.287,9.877357
7519.215,9.879543
7521.144,9.880857
7523.072,9.872947
7525.001,9.867567
7526.93,9.866601
7528.858,9.867026
7530.786,9.862738
7532.715,9.859642
7534.644,9.858386
7536.572,9.85578
7538.5,9.849424
7540.429,9.847473
7542.357,9.839309
7544.286,9.833282
7546.214,9.830582
7548.143,9.833334
7550.071,9.832684
7552.0,9.825463
7553.928,9.819213
7555.857,9.814667
7557.785,9.815521
7559.714,9.810667
7561.643,9.807377
7563.571,9.801512
7565.499,9.798555
7567.428,9.793787
7569.356,9.790157
7571.285,9.787384
7573.213,9.785153
7575.142,9.777268
7577.07,9.767074
7578.999,9.757699
7580.927,9.756221
7582.855,9.760321
7584.784,9.761936
7586.713,9.752914
7588.642,9.743629
7590.57,9.733883
7592.498,9.737745
7594.427,9.73493
7596.355,9.725782
7598.284,9.721475
7600.212,9.71523
7602.141,9.69847
7604.069,9.688191
7605.998,9.686472
7607.926,9.686564
7609.854,9.679268
7611.783,9.673299
7613.712,9.669956
7615.641,9.662786
7617.569,9.654647
7619.497,9.643091
7621.426,9.627972
7623.354,9.620192
7625.283,9.618759
7627.211,9.608178
7629.14,9.603259
7631.068,9.592875
7632.997,9.580869
7634.925,9.579216
7636.854,9.567089
7638.782,9.552249
7640.711,9.551292
7642.639,9.543912
7644.568,9.534869
7646.496,9.525439
7648.425,9.514307
7650.354,9.508148
7652.282,9.50526
7654.21,9.492208
7656.139,9.48373
7658.067,9.478319
7659.996,9.474858
7661.924,9.47066
7663.853,9.45461
7665.781,9.449249
7667.71,9.448309
7669.638,9.438774
7671.566,9.432807
7673.495,9.419239
7675.424,9.414575
7677.353,9.414449
7679.281,9.416159
7681.209,9.41978
7683.138,9.409816
7685.066,9.399756
7686.995,9.392889
7688.923,9.379846
7690.852,9.373238
7692.78,9.374277
7694.709,9.372088
7696.637,9.36483
7698.565,9.35899
7700.494,9.358038
7702.423,9.353336
7704.352,9.343875
7706.28,9.339087
7708.208,9.335776
7710.137,9.325929
7712.065,9.320567
7713.994,9.313233
7715.922,9.309651
7717.851,9.297636
7719.779,9.289404
7721.708,9.286488
7723.636,9.286996
7725.564,9.279806
7727.493,9.273104
7729.422,9.268148
7731.35,9.25845
7733.279,9.249393
7735.207,9.255255
7737.136,9.252358
7739.064,9.239802
7740.993,9.231737
7742.921,9.230989
7744.85,9.231556
7746.778,9.22154
7748.707,9.213094
7750.635,9.203569
7752.563,9.193937
7754.492,9.189379
7756.421,9.186207
7758.349,9.176958
7760.277,9.160984
7762.206,9.153887
7764.135,9.148343
7766.063,9.142276
7767.992,9.136572
7769.92,9.132363
7771.849,9.118633
7773.777,9.113952
7775.706,9.110306
7777.634,9.100245
7779.563,9.100671
7781.491,9.096032
7783.42,9.088289
7785.348,9.085751
7787.276,9.084516
7789.205,9.080306
7791.134,9.073639
7793.063,9.071066
7794.991,9.066702
7796.919,9.062544
7798.848,9.051218
7800.776,9.04729
7802.705,9.042098
7804.633,9.028168
7806.562,9.019911
7808.49,9.020051
7810.419,9.012021
7812.347,8.998833
7814.275,8.989591
7816.204,8.988288
7818.133,8.985749
7820.061,8.980846
7821.989,8.967289
7823.918,8.956826
7825.847,8.949831
7827.775,8.940866
7829.704,8.930753
7831.632,8.92421
7833.561,8.915115
7835.489,8.913434
7837.417,8.902926
7839.346,8.889864
7841.274,8.877568
7843.203,8.871929
7845.132,8.864663
7847.06,8.855478
7848.988,8.843717
7850.917,8.836356
7852.846,8.821568
7854.774,8.807971
7856.703,8.7946
7858.631,8.784695
7860.56,8.779262
7862.488,8.77004
7864.417,8.757695
7866.345,8.744825
7868.273,8.731778
7870.202,8.723836
7872.131,8.709403
7874.059,8.700551
7875.987,8.684452
7877.916,8.668288
7879.845,8.655967
7881.773,8.635335
7883.702,8.6176
7885.63,8.610564
7887.559,8.60318
7889.487,8.592412
7891.416,8.575365
7893.344,8.556153
7895.272,8.534112
7897.201,8.521021
7899.13,8.512141
7901.058,8.503407
7902.986,8.481317
7904.915,8.463084
7906.844,8.448106
7908.772,8.435297
7910.7,8.421467
7912.629,8.408327
7914.558,8.392532
7916.486,8.38316
7918.415,8.362507
7920.343,8.338858
7922.271,8.322148
7924.2,8.2997
7926.128,8.285524
7928.057,8.273273
7929.985,8.260381
7931.914,8.243827
7933.843,8.221609
7935.771,8.199748
7937.699,8.176093
7939.628,8.158849
7941.557,8.143342
7943.485,8.122197
7945.414,8.102429
7947.342,8.083053
7949.271,8.059657
7951.199,8.04681
7953.127,8.030478
7955.056,8.002214
7956.984,7.977716
7958.913,7.956892
7960.842,7.937558
7962.77,7.91809
7964.698,7.889684
7966.627,7.86428
7968.556,7.851157
7970.484,7.826985
7972.413,7.799236
7974.341,7.782176
7976.27,7.762115
7978.198,7.729998
7980.126,7.703402
7982.055,7.687496
7983.983,7.667615
7985.912,7.641436
7987.841,7.606802
7989.769,7.583322
7991.697,7.564209
7993.626,7.535811
7995.555,7.501651
7997.483,7.484416
7999.411,7.469162
8001.34,7.446022
8003.269,7.413609
8005.197,7.377169
8007.125,7.351054
8009.054,7.331859
8010.982,7.307381
8012.911,7.274356
8014.839,7.241192
8016.768,7.220223
8018.696,7.201518
8020.625,7.171263
8022.554,7.128121
8024.482,7.095104
8026.41,7.070157
8028.339,7.0379
8030.268,7.000731
8032.196,6.974349
8034.125,6.944719
8036.053,6.912985
8037.981,6.870449
8039.91,6.847854
8041.838,6.826203
8043.767,6.795964
8045.695,6.756436
8047.624,6.721152
8049.553,6.689759
8051.481,6.650147
8053.409,6.612705
8055.338,6.585407
8057.267,6.557427
8059.195,6.5202
8061.124,6.485291
8063.052,6.453032
8064.98,6.407783
8066.909,6.37788
8068.837,6.350319
8070.766,6.313168
8072.694,6.274704
8074.623,6.245423
8076.552,6.218203
8078.48,6.189252
8080.408,6.146482
8082.337,6.095211
8084.266,6.055143
8086.194,6.020665
8088.122,5.990972
8090.051,5.960771
8091.979,5.920556
8093.908,5.873711
8095.836,5.839389
8097.765,5.800705
8099.693,5.752055
8101.622,5.71629
8103.551,5.677079
8105.479,5.64072
8107.407,5.607962
8109.336,5.566774
8111.265,5.514037
8113.192,5.466286
8115.121,5.433574
8117.05,5.389827
8118.979,5.351638
8120.907,5.311523
8122.835,5.270315
8124.764,5.229212
8126.692,5.17927
8128.621,5.133754
8130.55,5.091028
8132.478,5.053701
8134.406,5.010841
8136.335,4.964802
8138.264,4.930976
8140.191,4.898874
8142.12,4.859386
8144.049,4.816146
8145.978,4.773796
8147.906,4.725279
8149.834,4.679103
8151.763,4.641274
8153.691,4.603088
8155.62,4.564242
8157.548,4.521306
8159.477,4.478165
8161.405,4.444579
8163.334,4.408205
8165.263,4.367299
8167.19,4.321982
8169.119,4.283265
8171.048,4.255257
8172.977,4.226203
8174.905,4.187097
8176.833,4.152742
8178.762,4.122493
8180.69,4.091819
8182.619,4.048822
8184.547,4.009407
8186.476,3.994659
8188.404,3.975715
8190.333,3.944706
8192.262,3.912271
8194.189,3.89031
8196.118,3.876386
8198.047,3.860829
8199.976,3.846454
8201.903,3.830523
8203.832,3.812943
8205.761,3.8026
8207.689,3.795546
8209.618,3.788147
8211.546,3.779899
8213.475,3.771458
8215.403,3.768148
8217.332,3.76025
8219.261,3.757274
8221.188,3.751338
8223.117,3.754288
8225.046,3.753371
8226.975,3.746178
8228.902,3.742996
8230.831,3.74673
8232.76,3.74316
8234.688,3.737511
8236.617,3.750636
8238.545,3.759302
8240.474,3.752089
8242.402,3.757727
8244.331,3.76573
8246.259,3.765288
8248.188,3.768178
8250.116,3.778173
8252.045,3.788084
8253.974,3.784657
8255.901,3.784841
8257.83,3.785499
8259.759,3.788476
8261.688,3.80385
8263.616,3.823229
8265.544,3.829707
8267.473,3.834697
8269.401,3.844049
8271.33,3.866878
8273.258,3.890635
8275.187,3.904019
8277.115,3.906233
8279.044,3.911702
8280.973,3.925379
8282.9,3.95596
8284.829,3.974351
8286.758,3.989723
8288.687,4.012631
8290.614,4.035643
8292.543,4.059766
8294.472,4.073575
8296.4,4.094201
8298.329,4.11401
8300.257,4.140431
8302.186,4.158678
8304.114,4.183898
8306.043,4.206132
8307.972,4.227747
8309.899,4.248991
8311.828,4.26682
8313.757,4.279905
8315.686,4.312067
8317.613,4.340755
8319.542,4.363368
8321.471,4.393882
8323.399,4.424787
8325.328,4.44476
8327.256,4.46237
8329.185,4.485458
8331.113,4.50986
8333.042,4.535398
8334.97,4.564522
8336.898,4.586335
8338.827,4.599442
8340.756,4.631584
8342.685,4.663381
8344.612,4.694357
8346.541,4.729324
8348.47,4.762897
8350.398,4.789438
8352.327,4.819631
8354.255,4.844009
8356.184,4.871531
8358.112,4.904465
8360.041,4.936513
8361.969,4.970357
8363.897,5.001148
8365.826,5.02703
8367.755,5.059052
8369.684,5.085764
8371.611,5.102308
8373.54,5.139008
8375.469,5.166424
8377.397,5.191825
8379.325,5.216646
8381.254,5.247345
8383.183,5.27868
8385.111,5.295147
8387.04,5.31164
8388.968,5.334741
8390.896,5.353729
8392.825,5.370156
8394.754,5.393387
8396.683,5.412195
8398.61,5.428571
8400.539,5.444499
8402.468,5.452527
8404.396,5.461806
8406.324,5.478737
8408.253,5.489654
8410.182,5.484439
8412.11,5.482271
8414.039,5.492221
8415.967,5.509928
8417.896,5.512044
8419.824,5.513241
8421.753,5.528761
8423.681,5.540275
8425.609,5.553399
8427.538,5.577984
8429.467,5.598185
8431.396,5.615782
8433.323,5.643159
8435.252,5.684831
8437.181,5.718488
8439.109,5.752775
8441.037,5.79585
8442.966,5.836078
8444.895,5.87797
8446.823,5.912643
8448.752,5.952105
8450.68,5.99661
8452.608,6.04063
8454.537,6.079438
8456.466,6.116315
8458.395,6.171236
8460.322,6.20738
8462.251,6.230464
8464.18,6.257154
8466.108,6.283031
8468.036,6.32284
8469.965,6.360944
8471.894,6.391994
8473.822,6.431695
8475.751,6.466792
8477.679,6.49386
8479.607,6.520948
8481.536,6.552002
8483.465,6.599399
8485.393,6.632037
8487.321,6.66093
8489.25,6.695517
8491.179,6.726199
8493.107,6.754328
8495.035,6.776974
8496.964,6.803934
8498.893,6.823267
8500.821,6.848611
8502.75,6.874519
8504.678,6.897424
8506.606,6.915245
8508.535,6.931063
8510.464,6.941961
8512.392,6.953494
8514.32,6.97229
8516.249,6.981847
8518.178,6.998044
8520.106,7.01722
8522.034,7.028867
8523.963,7.042053
8525.892,7.066516
8527.82,7.090466
8529.748,7.093658
8531.677,7.094243
8533.605,7.105672
8535.534,7.114159
8537.463,7.117436
8539.391,7.1027
8541.319,7.100646
8543.248,7.085822
8545.177,7.057639
8547.105,7.040104
8549.033,7.018248
8550.962,6.988227
8552.891,6.95056
8554.819,6.927154
8556.747,6.902066
8558.676,6.882238
8560.604,6.85565
8562.533,6.830438
8564.462,6.837044
8566.39,6.870324
8568.318,6.892382
8570.247,6.900494
8572.176,6.923196
8574.104,6.96873
8576.032,7.019863
8577.961,7.069764
8579.89,7.112866
8581.818,7.157365
8583.746,7.197995
8585.675,7.240354
8587.604,7.290345
8589.532,7.346055
8591.461,7.404031
8593.389,7.45914
8595.317,7.515245
8597.246,7.576736
8599.175,7.634628
8601.103,7.686373
8603.031,7.73882
8604.96,7.796988
8606.889,7.855389
8608.817,7.914914
8610.745,7.973473
8612.674,8.011065
8614.603,8.057309
8616.531,8.114569
8618.459,8.176073
8620.388,8.227967
8622.316,8.269979
8624.245,8.326124
8626.174,8.386115
8628.102,8.422608
8630.03,8.451669
8631.959,8.495418
8633.888,8.545078
8635.816,8.584852
8637.744,8.621737
8639.673,8.650808
8641.602,8.683617
8643.53,8.721228
8645.458,8.754004
8647.387,8.787388
8649.315,8.809705
8651.244,8.843587
8653.173,8.880136
8655.101,8.893442
8657.029,8.91268
8658.958,8.944247
8660.887,8.966479
8662.814,8.996369
8664.743,9.022935
8666.672,9.027238
8668.601,9.060332
8670.529,9.093114
8672.457,9.110338
8674.386,9.128817
8676.314,9.150949
8678.243,9.169727
8680.172,9.187966
8682.1,9.201547
8684.028,9.219292
8685.957,9.243804
8687.886,9.274297
8689.813,9.29832
8691.742,9.322727
8693.671,9.347386
8695.6,9.380238
8697.528,9.401598
8699.456,9.422774
8701.385,9.453253
8703.313,9.481489
8705.242,9.507658
8707.17,9.546577
8709.099,9.590703
8711.027,9.610571
8712.956,9.622307
8714.885,9.661772
8716.813,9.702202
8718.741,9.725807
8720.67,9.759348
8722.599,9.794428
8724.527,9.816002
8726.455,9.839556
8728.384,9.870882
8730.313,9.907107
8732.241,9.936711
8734.169,9.967889
8736.098,9.995583
8738.026,10.0217
8739.955,10.04127
8741.884,10.06074
8743.812,10.09541
8745.74,10.13354
8747.669,10.16179
8749.598,10.17326
8751.525,10.19322
8753.454,10.22015
8755.383,10.23779
8757.312,10.25395
8759.24,10.28214
8761.168,10.30544
8763.097,10.32448
8765.025,10.34549
8766.954,10.3668
8768.882,10.37902
8770.811,10.40324
8772.739,10.4307
8774.668,10.4325
8776.597,10.43938
8778.524,10.45995
8780.453,10.48275
8782.382,10.50143
8784.311,10.51635
8786.239,10.52946
8788.167,10.54362
8790.096,10.55899
8792.024,10.57837
8793.953,10.58647
8795.881,10.58876
8797.81,10.59085
8799.738,10.60639
8801.667,10.63216
8803.596,10.64248
8805.523,10.65061
8807.452,10.65955
8809.381,10.65786
8811.31,10.66156
8813.237,10.6726
8815.166,10.70355
8817.095,10.71479
8819.023,10.70547
8820.952,10.71169
8822.88,10.72266
8824.809,10.72816
8826.737,10.73545
8828.666,10.73156
8830.595,10.73526
8832.522,10.75228
8834.451,10.76067
8836.38,10.76231
8838.309,10.76509
8840.236,10.77071
8842.165,10.78286
8844.094,10.78658
8846.022,10.77089
8847.951,10.76556
8849.879,10.77188
8851.808,10.78654
8853.736,10.79809
8855.665,10.80253
8857.593,10.79892
8859.521,10.78971
8861.45,10.80307
8863.379,10.80842
8865.308,10.82396
8867.235,10.83227
8869.164,10.82312
8871.093,10.82673
8873.021,10.82503
8874.95,10.83195
8876.878,10.83533
8878.807,10.82842
8880.735,10.82027
8882.664,10.83428
8884.592,10.84386
8886.521,10.83535
8888.449,10.81824
8890.378,10.82209
8892.307,10.83578
8894.234,10.82763
8896.163,10.81433
8898.092,10.82877
8900.021,10.83362
8901.948,10.81231
8903.877,10.80203
8905.806,10.81866
8907.734,10.83776
8909.663,10.83308
8911.591,10.81606
8913.52,10.83257
8915.448,10.83471
8917.377,10.83407
8919.306,10.84027
8921.233,10.82368
8923.162,10.8187
8925.091,10.80997
8927.02,10.80881
8928.947,10.81185
8930.876,10.81678
8932.805,10.83025
8934.733,10.83511
8936.662,10.82428
8938.59,10.81656
8940.519,10.82344
8942.447,10.8257
8944.376,10.81534
8946.304,10.81069
8948.232,10.81172
8950.161,10.82165
8952.09,10.81751
8954.019,10.82259
8955.946,10.82562
8957.875,10.80684
8959.804,10.81249
8961.732,10.82473
8963.661,10.81418
8965.589,10.81442
8967.518,10.81315
8969.446,10.80319
8971.375,10.80989
8973.303,10.82213
8975.231,10.81279
8977.16,10.81435
8979.089,10.82561
8981.018,10.83579
8982.945,10.82886
8984.874,10.81785
8986.803,10.81061
8988.731,10.81876
8990.659,10.82316
8992.588,10.82628
8994.517,10.82962
8996.445,10.83558
8998.374,10.82764
9000.302,10.82841
9002.23,10.8423
9004.159,10.85511
9006.088,10.84267
9008.017,10.84197
9009.944,10.84115
9011.873,10.84208
9013.802,10.85559
9015.73,10.86508
9017.658,10.85967
9019.587,10.85927
9021.516,10.85599
9023.444,10.8449
9025.373,10.84572
9027.301,10.86795
9029.229,10.87489
9031.158,10.86127
9033.087,10.84959
9035.015,10.85011
9036.943,10.86118
9038.872,10.86762
9040.801,10.87268
9042.729,10.87989
9044.657,10.88016
9046.586,10.88027
9048.515,10.87864
9050.443,10.87265
9052.372,10.86907
9054.3,10.87325
9056.229,10.87347
9058.157,10.87122
9060.086,10.86979
9062.014,10.87355
9063.942,10.87317
9065.871,10.88396
9067.8,10.89074
9069.729,10.89453
9071.656,10.88055
9073.585,10.88328
9075.514,10.89141
9077.442,10.89091
9079.37,10.88541
9081.299,10.88421
9083.228,10.89916
9085.156,10.89973
9087.085,10.88582
9089.013,10.88263
9090.941,10.88115
9092.87,10.88913
9094.799,10.88729
9096.727,10.88542
9098.655,10.88674
9100.584,10.88988
9102.513,10.89415
9104.441,10.89215
9106.369,10.89468
9108.298,10.90192
9110.227,10.8895
9112.155,10.89291
9114.084,10.90024
9116.012,10.88687
9117.94,10.86836
9119.869,10.86187
9121.798,10.86713
9123.726,10.8799
9125.654,10.88773
9127.583,10.88821
9129.512,10.87878
9131.44,10.87095
9133.368,10.86975
9135.297,10.86832
9137.226,10.86725
9139.154,10.86657
9141.082,10.84341
9143.011,10.84914
9144.939,10.85469
9146.868,10.86359
9148.797,10.86189
9150.725,10.86001
9152.653,10.8582
9154.582,10.86775
9156.511,10.8495
9158.439,10.83738
9160.367,10.83899
9162.296,10.84358
9164.225,10.84536
9166.153,10.83966
9168.081,10.83941
9170.01,10.84645
9171.938,10.83542
9173.867,10.83311
9175.796,10.84288
9177.724,10.8392
9179.652,10.8279
9181.581,10.82968
9183.51,10.82105
9185.438,10.80664
9187.366,10.8024
9189.295,10.81045
9191.224,10.80665
9193.152,10.80978
9195.08,10.79465
9197.009,10.78927
9198.938,10.79734
9200.866,10.79118
9202.795,10.79177
9204.723,10.80319
9206.651,10.78889
9208.58,10.78825
9210.509,10.79657
9212.437,10.79571
9214.365,10.78135
9216.294,10.76676
9218.223,10.76323
9220.151,10.77021
9222.079,10.77282
9224.008,10.76415
9225.937,10.75525
9227.865,10.75433
9229.793,10.75805
9231.722,10.75343
9233.65,10.75434
9235.579,10.74681
9237.508,10.75524
9239.436,10.76993
9241.364,10.76743
9243.293,10.75613
9245.222,10.74266
9247.15,10.73834
9249.078,10.73044
9251.007,10.7295
9252.936,10.73014
9254.864,10.72629
9256.792,10.72496
9258.721,10.7321
9260.649,10.72667
9262.578,10.71858
9264.507,10.71259
9266.435,10.72191
9268.363,10.72545
9270.292,10.72174
9272.221,10.71253
9274.148,10.70025
9276.077,10.68863
9278.006,10.69279
9279.935,10.6836
9281.863,10.68476
9283.791,10.69857
9285.72,10.69992
9287.648,10.6783
9289.577,10.66688
9291.506,10.66926
9293.434,10.676
9295.362,10.67288
9297.291,10.68272
9299.22,10.66653
9301.147,10.66197
9303.076,10.67109
9305.005,10.6828
9306.934,10.68749
9308.862,10.68687
9310.79,10.67989
9312.719,10.68078
9314.647,10.68843
9316.576,10.67727
9318.504,10.67709
9320.433,10.6787
9322.361,10.67834
9324.29,10.68044
9326.219,10.68076
9328.146,10.6808
9330.075,10.69586
9332.004,10.69232
9333.933,10.67868
9335.861,10.67059
9337.789,10.65058
9339.718,10.64418
9341.646,10.65368
9343.575,10.65299
9345.503,10.65759
9347.432,10.66757
9349.36,10.66756
9351.289,10.66509
9353.218,10.66329
9355.146,10.6585
9357.074,10.65972
9359.003,10.66313
9360.932,10.64684
9362.859,10.6147
9364.788,10.5986
9366.717,10.61224
9368.646,10.6209
9370.574,10.61697
9372.502,10.62933
9374.431,10.62337
9376.359,10.61892
9378.288,10.60991
9380.217,10.60648
9382.145,10.60884
9384.073,10.60159
9386.002,10.60689
9387.931,10.59784
9389.858,10.57247
9391.787,10.56028
9393.716,10.56407
9395.645,10.56693
9397.573,10.56627
9399.501,10.5661
9401.43,10.55706
9403.358,10.54451
9405.287,10.53869
9407.215,10.54281
9409.144,10.5379
9411.072,10.53918
9413.001,10.53151
9414.93,10.52929
9416.857,10.53393
9418.786,10.52369
9420.715,10.50313
9422.644,10.4888
9424.571,10.48283
9426.5,10.49518
9428.429,10.49088
9430.357,10.47411
9432.286,10.4688
9434.214,10.46305
9436.143,10.4671
9438.071,10.476
9440.0,10.45494
9441.929,10.44887
9443.856,10.45514
9445.785,10.44153
9447.714,10.43483
9449.643,10.44527
9451.57,10.41895
9453.499,10.41081
9455.428,10.41374
9457.356,10.41634
9459.285,10.41265
9461.213,10.37101
9463.142,10.35952
9465.07,10.37488
9466.999,10.37488
9468.927,10.37695
9470.855,10.36112
9472.784,10.34713
9474.713,10.35511
9476.642,10.36038
9478.569,10.34909
9480.498,10.35603
9482.427,10.35684
9484.355,10.35595
9486.284,10.3609
9488.212,10.35556
9490.141,10.32879
9492.069,10.32185
9493.998,10.33195
9495.926,10.32412
9497.854,10.31129
9499.783,10.31074
9501.712,10.30463
9503.641,10.28609
9505.568,10.27573
9507.497,10.29287
9509.426,10.2951
9511.354,10.28262
9513.282,10.29153
9515.211,10.28097
9517.14,10.27358
9519.068,10.27662
9520.997,10.26994
9522.925,10.27048
9524.854,10.26366
9526.782,10.26701
9528.711,10.27131
9530.64,10.25731
9532.567,10.23051
9534.496,10.23252
9536.425,10.2481
9538.354,10.24783
9540.281,10.22397
9542.21,10.20818
9544.139,10.20301
9546.067,10.20001
9547.996,10.2115
9549.924,10.2314
9551.853,10.2064
9553.781,10.18722
9555.71,10.19246
9557.638,10.19014
9559.566,10.17393
9561.495,10.16466
9563.424,10.16538
9565.353,10.16484
9567.28,10.1644
9569.209,10.17121
9571.138,10.1608
9573.066,10.15214
9574.995,10.1547
9576.923,10.14743
9578.852,10.13728
9580.78,10.12842
9582.709,10.13845
9584.637,10.13782
9586.565,10.13829
9588.494,10.13034
9590.423,10.13757
9592.352,10.1146
9594.279,10.09881
9596.208,10.10487
9598.137,10.12261
9600.065,10.13787
9601.993,10.12783
9603.922,10.12282
9605.851,10.13707
9607.779,10.1387
9609.708,10.13701
9611.636,10.15829
9613.564,10.15799
9615.493,10.15208
9617.422,10.15294
9619.351,10.15795
9621.278,10.17087
9623.207,10.18178
9625.136,10.19602
9627.064,10.21893
9628.992,10.21689
9630.921,10.21779
9632.85,10.2116
9634.778,10.19048
9636.707,10.18397
9638.635,10.19988
9640.563,10.23411
9642.492,10.23327
9644.421,10.22136
9646.349,10.22032
9648.277,10.21303
9650.206,10.2384
9652.135,10.24341
9654.063,10.24699
9655.991,10.27331
9657.92,10.28561
9659.849,10.29677
9661.777,10.30484
9663.706,10.30305
9665.634,10.31359
9667.563,10.32668
9669.491,10.33788
9671.42,10.35536
9673.348,10.35207
9675.276,10.35611
9677.205,10.35659
9679.134,10.36833
9681.063,10.37952
9682.99,10.36242
9684.919,10.36422
9686.848,10.36561
9688.776,10.36605
9690.704,10.3991
9692.633,10.4073
9694.562,10.40623
9696.49,10.41693
9698.419,10.43855
9700.347,10.44548
9702.275,10.45644
9704.204,10.45981
9706.133,10.45788
9708.062,10.45936
9709.989,10.46588
9711.918,10.48656
9713.847,10.49805
9715.775,10.51053
9717.703,10.51005
9719.632,10.51547
9721.561,10.52327
9723.489,10.52727
9725.418,10.53282
9727.346,10.54341
9729.274,10.56161
9731.203,10.56408
9733.132,10.56302
9735.06,10.58626
9736.988,10.57964
9738.917,10.56473
9740.846,10.58244
9742.774,10.59057
9744.702,10.60793
9746.631,10.63033
9748.56,10.61203
9750.488,10.60442
9752.416,10.61879
9754.345,10.61973
9756.273,10.62951
9758.202,10.63727
9760.131,10.624
9762.059,10.63929
9763.987,10.66933
9765.916,10.66986
9767.845,10.66386
9769.773,10.65753
9771.701,10.66362
9773.63,10.67505
9775.559,10.67958
9777.487,10.67961
9779.415,10.68908
9781.344,10.66477
9783.272,10.65977
9785.201,10.66499
9787.13,10.65922
9789.058,10.66635
9790.986,10.67436
9792.915,10.66005
9794.844,10.63235
9796.771,10.63484
9798.7,10.64954
9800.629,10.65717
9802.558,10.64848
9804.486,10.67
9806.414,10.6678
9808.343,10.65732
9810.271,10.66937
9812.2,10.67188
9814.129,10.65093
9816.057,10.66602
9817.985,10.67202
9819.914,10.65353
9821.843,10.67481
9823.771,10.67377
9825.699,10.66794
9827.628,10.67545
9829.557,10.66351
9831.485,10.67347
9833.413,10.68409
9835.342,10.66519
9837.271,10.66691
9839.199,10.71308
9841.127,10.71083
9843.056,10.72907
9844.984,10.75179
9846.913,10.73093
9848.842,10.72721
9850.77,10.74598
9852.698,10.75493
9854.627,10.74992
9856.556,10.76393
9858.484,10.78666
9860.412,10.80306
9862.341,10.79524
9864.27,10.78076
9866.198,10.77379
9868.126,10.78952
9870.055,10.81448
9871.983,10.80636
9873.912,10.81194
9875.841,10.82773
9877.769,10.8305
9879.697,10.83098
9881.626,10.83098
9883.555,10.85624
9885.482,10.87715
9887.411,10.89385
9889.34,10.88988
9891.269,10.89381
9893.197,10.91441
9895.125,10.90276
9897.054,10.90765
9898.982,10.92063
9900.911,10.92885
9902.84,10.95268
9904.768,10.9806
9906.696,10.97914
9908.625,10.98086
9910.554,10.97153
9912.481,10.97067
9914.41,10.97564
9916.339,10.98548
9918.268,10.98577
9920.196,10.99622
9922.124,11.01296
9924.053,11.00681
9925.981,11.00594
9927.91,11.02835
9929.838,11.02787
9931.767,11.03433
9933.695,11.03971
9935.624,11.04916
9937.553,11.0576
9939.48,11.05842
9941.409,11.07434
9943.338,11.0708
9945.267,11.05009
9947.195,11.06007
9949.123,11.07875
9951.052,11.06841
9952.98,11.0843
9954.909,11.09713
9956.837,11.10162
9958.766,11.11091
9960.694,11.10355
9962.623,11.11185
9964.552,11.13482
9966.479,11.13416
9968.408,11.14396
9970.337,11.15638
9972.266,11.15228
9974.193,11.17009
9976.122,11.16102
9978.051,11.17018
9979.979,11.19004
9981.908,11.16044
9983.836,11.14245
9985.765,11.16722
9987.693,11.15171
9989.622,11.15675
9991.551,11.17909
9993.479,11.17115
9995.407,11.1655
9997.336,11.16699
9999.265,11.18265
10001.19,11.19136
10003.12,11.18941
10005.05,11.18965
10006.98,11.1994
10008.91,11.21104
10010.83,11.22844
10012.76,11.22299
10014.69,11.18511
10016.62,11.18393
10018.55,11.19614
10020.48,11.21273
10022.41,11.22674
10024.33,11.23007
10026.26,11.22929
10028.19,11.23519
10030.12,11.26333
10032.05,11.25934
10033.98,11.25923
10035.91,11.27045
10037.83,11.26717
10039.76,11.25448
10041.69,11.27851
10043.62,11.28455
10045.55,11.25085
10047.48,11.25093
10049.41,11.27316
10051.33,11.29229
10053.26,11.28767
10055.19,11.29406
10057.12,11.29672
10059.05,11.29474
10060.98,11.29267
10062.9,11.30355
10064.83,11.32762
10066.76,11.32085
10068.69,11.3118
10070.62,11.33294
10072.55,11.30688
10074.48,11.29002
10076.4,11.30058
10078.33,11.31268
10080.26,11.32132
10082.19,11.31631
10084.12,11.32902
10086.05,11.3252
10087.98,11.3182
10089.9,11.32535
10091.83,11.31816
10093.76,11.30791
10095.69,11.31971
10097.62,11.31487
10099.55,11.33601
10101.47,11.34418
10103.4,11.34797
10105.33,11.34665
10107.26,11.32423
10109.19,11.32774
10111.12,11.34822
10113.05,11.34984
10114.97,11.33998
10116.9,11.32926
10118.83,11.3196
10120.76,11.33722
10122.69,11.34189
10124.62,11.33825
10126.54,11.35195
10128.47,11.3642
10130.4,11.35789
10132.33,11.3537
10134.26,11.35677
10136.19,11.38376
10138.12,11.37554
10140.04,11.34691
10141.97,11.3607
10143.9,11.38767
10145.83,11.40885
10147.76,11.40073
10149.69,11.35909
10151.62,11.35471
10153.54,11.36368
10155.47,11.36747
10157.4,11.37129
10159.33,11.37423
10161.26,11.36088
10163.19,11.36448
10165.12,11.36358
10167.04,11.37448
10168.97,11.38
10170.9,11.39267
10172.83,11.37495
10174.76,11.36767
10176.69,11.37374
10178.61,11.40036
10180.54,11.38115
10182.47,11.3536
10184.4,11.36312
10186.33,11.37175
10188.26,11.39377
10190.19,11.39785
10192.11,11.38391
10194.04,11.38233
10195.97,11.38428
10197.9,11.37888
10199.83,11.36806
10201.76,11.38094
10203.69,11.38236
10205.61,11.38619
10207.54,11.39441
10209.47,11.38852
10211.4,11.40486
10213.33,11.4176
10215.26,11.42159
10217.18,11.40416
10219.11,11.39148
10221.04,11.38768
10222.97,11.3743
10224.9,11.3777
10226.83,11.38761
10228.76,11.3701
10230.68,11.36741
10232.61,11.37346
10234.54,11.38188
10236.47,11.37825
10238.4,11.36557
10240.33,11.3612
10242.25,11.36899
10244.18,11.35892
10246.11,11.35392
10248.04,11.38151
10249.97,11.3879
10251.9,11.40186
10253.83,11.37693
10255.75,11.37471
10257.68,11.39323
10259.61,11.38174
10261.54,11.38154
10263.47,11.40506
10265.4,11.4085
10267.33,11.37605
10269.25,11.32498
10271.18,11.33821
10273.11,11.37084
10275.04,11.36227
10276.97,11.34198
10278.9,11.3679
10280.83,11.33725
10282.75,11.32048
10284.68,11.33428
10286.61,11.32708
10288.54,11.34177
10290.47,11.35672
10292.4,11.33477
10294.32,11.33637
10296.25,11.34075
10298.18,11.35911
10300.11,11.37055
10302.04,11.36928
10303.97,11.36757
10305.9,11.36006
10307.82,11.33714
10309.75,11.34268
10311.68,11.35518
10313.61,11.38119
10315.54,11.36102
10317.47,11.31922
10319.4,11.33891
10321.32,11.36786
10323.25,11.3985
10325.18,11.37127
10327.11,11.35136
10329.04,11.33335
10330.97,11.35395
10332.89,11.34506
10334.82,11.30467
10336.75,11.30823
10338.68,11.32412
10340.61,11.31983
10342.54,11.31971
10344.47,11.33395
10346.39,11.3581
10348.32,11.34318
10350.25,11.31428
10352.18,11.32295
10354.11,11.30077
10356.04,11.31814
10357.96,11.31335
10359.89,11.2865
10361.82,11.299
10363.75,11.30702
10365.68,11.28636
10367.61,11.2871
10369.54,11.27005
10371.46,11.30399
10373.39,11.3199
10375.32,11.29176
10377.25,11.2563
10379.18,11.27273
10381.11,11.29572
10383.04,11.30862
10384.96,11.27211
10386.89,11.27753
10388.82,11.32031
10390.75,11.32196
10392.68,11.30747
10394.61,11.27991
10396.54,11.28811
10398.46,11.27116
10400.39,11.27587
10402.32,11.28617
10404.25,11.32183
10406.18,11.28663
10408.11,11.24398
10410.03,11.2326
10411.96,11.23875
10413.89,11.26363
10415.82,11.26059
10417.75,11.23103
10419.68,11.22612
10421.61,11.25338
10423.53,11.25142
10425.46,11.22142
10427.39,11.21962
10429.32,11.193
10431.25,11.15886
10433.18,11.17255
10435.1,11.18237
10437.03,11.16232
10438.96,11.17268
10440.89,11.18214
10442.82,11.17804
10444.75,11.19728
10446.68,11.23504
10448.6,11.20752
10450.53,11.15287
10452.46,11.1699
10454.39,11.2071
10456.32,11.1976
10458.25,11.20596
10460.18,11.18071
10462.1,11.1505
10464.03,11.16116
10465.96,11.17122
10467.89,11.16292
10469.82,11.15891
10471.75,11.1647
10473.67,11.14299
10475.6,11.12593
10477.53,11.1362
10479.46,11.14759
10481.39,11.11145
10483.32,11.09702
10485.25,11.13862
10487.17,11.10718
10489.1,11.06869
10491.03,11.0474
10492.96,11.05883
10494.89,11.03591
10496.82,10.99666
10498.75,11.01314
10500.67,11.02434
10502.6,11.01635
10504.53,10.98132
10506.46,11.01299
10508.39,11.00559
10510.32,10.98142
10512.25,10.97087
10514.17,10.95521
10516.1,10.97255
10518.03,10.9923
10519.96,10.94206
10521.89,10.93369
10523.82,10.92284
10525.74,10.92728
10527.67,10.88257
10529.6,10.83757
10531.53,10.81363
10533.46,10.85879
10535.39,10.87495
10537.32,10.84287
10539.24,10.82993
10541.17,10.86005
10543.1,10.86923
10545.03,10.85132
10546.96,10.82525
10548.89,10.7994
10550.81,10.76806
10552.74,10.77428
10554.67,10.79184
10556.6,10.76733
10558.53,10.7118
10560.46,10.70089
10562.39,10.75166
10564.31,10.73277
10566.24,10.67993
10568.17,10.67121
10570.1,10.65639
10572.03,10.63261
10573.96,10.58552
10575.89,10.55852
10577.81,10.55476
10579.74,10.56369
10581.67,10.52951
10583.6,10.45666
10585.53,10.46029
10587.46,10.47203
10589.38,10.45165
10591.31,10.41643
10593.24,10.4169
10595.17,10.40262
10597.1,10.36653
10599.03,10.3408
10600.96,10.30987
10602.88,10.27177
10604.81,10.25916
10606.74,10.21663
10608.67,10.18771
10610.6,10.21966
10612.53,10.24675
10614.46,10.16579
10616.38,10.11602
10618.31,10.11294
10620.24,10.07937
10622.17,10.04557
10624.1,10.0409
10626.03,10.0298
10627.96,10.02652
10629.88,9.977731
10631.81,9.935381
10633.74,9.866135
10635.67,9.831419
10637.6,9.829725
10639.53,9.809859
10641.45,9.759016
10643.38,9.733954
10645.31,9.730852
10647.24,9.730272
10649.17,9.720767
10651.1,9.661511
10653.03,9.634983
10654.95,9.610238
10656.88,9.59663
10658.81,9.54652
10660.74,9.498103
10662.67,9.474847
10664.6,9.476364
10666.52,9.452574
10668.45,9.408105
10670.38,9.358766
10672.31,9.36797
10674.24,9.339475
10676.17,9.29143
10678.1,9.298947
10680.02,9.269246
10681.95,9.245281
10683.88,9.245707
10685.81,9.214256
10687.74,9.160917
10689.67,9.166533
10691.59,9.188601
10693.52,9.16553
10695.45,9.139179
10697.38,9.153392
10699.31,9.138004
10701.24,9.102626
10703.17,9.095759
10705.09,9.09316
10707.02,9.07489
10708.95,9.041329
10710.88,9.022417
10712.81,8.996038
10714.74,9.012648
10716.67,9.033878
10718.59,9.048109
10720.52,9.026184
10722.45,9.042794
10724.38,9.057981
10726.31,9.003189
10728.24,9.018586
10730.17,9.011332
10732.09,8.995229
10734.02,9.046064
10735.95,9.061129
10737.88,9.035521
10739.81,9.027459
10741.74,9.082254
10743.67,9.113624
10745.59,9.096958
10747.52,9.110205
10749.45,9.118523
10751.38,9.111757
10753.31,9.128696
10755.24,9.12706
10757.16,9.107259
10759.09,9.08041
10761.02,9.097664
10762.95,9.138028
10764.88,9.174097
10766.81,9.17365
10768.74,9.171226
10770.66,9.178596
10772.59,9.19401
10774.52,9.193673
10776.45,9.231118
10778.38,9.264032
10780.31,9.298524
10782.23,9.280943
10784.16,9.280718
10786.09,9.306504
10788.02,9.313643
10789.95,9.356661
10791.88,9.367489
10793.81,9.390409
10795.73,9.400155
10797.66,9.428734
10799.59,9.462668
10801.52,9.485175
10803.45,9.487584
10805.38,9.449552
10807.3,9.472253
10809.23,9.493563
10811.16,9.532027
10813.09,9.558928
10815.02,9.552865
10816.95,9.561203
10818.88,9.570844
10820.8,9.564751
10822.73,9.588873
10824.66,9.62786
10826.59,9.642864
10828.52,9.672197
10830.45,9.694139
10832.38,9.729244
10834.3,9.795917
10836.23,9.803264
10838.16,9.823201
10840.09,9.880155
10842.02,9.880036
10843.95,9.869994
10845.88,9.910275
10847.8,9.950215
10849.73,9.932964
10851.66,9.926044
10853.59,9.956862
10855.52,9.961195
10857.45,9.946795
10859.38,9.964344
10861.3,9.989813
10863.23,10.00174
10865.16,9.994221
10867.09,10.02483
10869.02,10.0846
10870.95,10.11552
10872.87,10.14573
10874.8,10.10426
10876.73,10.11519
10878.66,10.15138
10880.59,10.17697
10882.52,10.17047
10884.45,10.17245
10886.37,10.22107
10888.3,10.25413
10890.23,10.20542
10892.16,10.261
10894.09,10.32562
10896.02,10.31017
10897.94,10.32349
10899.87,10.34924
10901.8,10.36548
10903.73,10.40536
10905.66,10.40866
10907.59,10.38357
10909.52,10.39436
10911.44,10.42579
10913.37,10.4853
10915.3,10.50374
10917.23,10.47598
10919.16,10.46864
10921.09,10.48357
10923.01,10.48739
10924.94,10.54045
10926.87,10.56309
10928.8,10.53179
10930.73,10.55202
10932.66,10.61783
10934.59,10.65046
10936.51,10.62217
10938.44,10.58875
10940.37,10.60322
10942.3,10.64617
10944.23,10.67292
10946.16,10.67849
10948.09,10.65729
10950.01,10.64827
10951.94,10.66889
10953.87,10.71841
10955.8,10.7575
10957.73,10.79504
10959.66,10.79425
10961.58,10.78333
10963.51,10.75732
10965.44,10.78107
10967.37,10.83744
10969.3,10.82148
10971.23,10.78891
10973.16,10.79327
10975.08,10.78355
10977.01,10.82988
10978.94,10.84594
10980.87,10.83908
10982.8,10.87519
10984.73,10.87389
10986.66,10.88318
10988.58,10.93324
10990.51,10.96773
10992.44,10.95009
10994.37,10.97865
10996.3,10.98411
10998.23,10.96699
11000.16,10.95965
11002.08,10.97635
11004.01,10.99379
11005.94,11.02123
11007.87,11.05891
11009.8,11.04892
11011.73,11.00336
11013.65,10.96914
11015.58,11.01245
11017.51,11.0481
11019.44,11.07275
11021.37,11.14662
11023.3,11.17371
11025.23,11.16094
11027.15,11.14554
11029.08,11.07586
11031.01,11.09507
11032.94,11.12757
11034.87,11.13354
11036.8,11.18524
11038.72,11.24967
11040.65,11.23176
11042.58,11.21901
11044.51,11.25347
11046.44,11.20974
11048.37,11.19631
11050.3,11.21947
11052.22,11.22852
11054.15,11.19155
11056.08,11.18477
11058.01,11.21453
11059.94,11.21566
11061.87,11.23442
11063.79,11.22889
11065.72,11.24062
11067.65,11.22756
11069.58,11.21986
11071.51,11.23837
11073.44,11.3076
11075.37,11.27828
11077.29,11.23025
11079.22,11.29181
11081.15,11.32372
11083.08,11.29351
11085.01,11.326
11086.94,11.33148
11088.87,11.31399
11090.79,11.32397
11092.72,11.31853
11094.65,11.30105
11096.58,11.32774
11098.51,11.3088
11100.44,11.26819
11102.37,11.27943
11104.29,11.32015
11106.22,11.35214
11108.15,11.35559
11110.08,11.34377
11112.01,11.31737
11113.94,11.35553
11115.87,11.32318
11117.79,11.3121
11119.72,11.32303
11121.65,11.35539
11123.58,11.38864
11125.51,11.29779
11127.44,11.26652
11129.36,11.30655
11131.29,11.37476
11133.22,11.39595
11135.15,11.39139
11137.08,11.38803
11139.01,11.40273
11140.94,11.38847
11142.86,11.44031
11144.79,11.46062
11146.72,11.46323
11148.65,11.43573
11150.58,11.42611
11152.51,11.41832
11154.43,11.42199
11156.36,11.38706
11158.29,11.3917
11160.22,11.37565
11162.15,11.40534
11164.08,11.44556
11166.01,11.44034
11167.93,11.42039
11169.86,11.4624
11171.79,11.48765
11173.72,11.49354
11175.65,11.43349
11177.58,11.4378
11179.5,11.43973
11181.43,11.41239
11183.36,11.43713
11185.29,11.51728
11187.22,11.54225
11189.15,11.54526
11191.08,11.53144
11193.0,11.54379
11194.93,11.54102
11196.86,11.53492
11198.79,11.52094
11200.72,11.57119
11202.65,11.57787
11204.58,11.56328
11206.5,11.5215
11208.43,11.50469
11210.36,11.56863
11212.29,11.6216
11214.22,11.59174
11216.15,11.54562
11218.08,11.6012
11220.0,11.66585
11221.93,11.714
11223.86,11.67531
11225.79,11.63794
11227.72,11.60871
11229.65,11.64489
11231.58,11.68337
11233.5,11.64887
11235.43,11.64349
11237.36,11.66479
11239.29,11.66503
11241.22,11.6514
11243.15,11.58824
11245.07,11.56199
11247.0,11.61565
11248.93,11.61537
11250.86,11.63512
11252.79,11.68901
11254.72,11.66133
11256.65,11.62951
11258.57,11.65815
11260.5,11.67074
11262.43,11.70059
11264.36,11.70577
11266.29,11.67704
11268.22,11.67151
11270.14,11.68881
11272.07,11.71439
11274.0,11.71933
11275.93,11.69153
11277.86,11.68584
11279.79,11.69708
11281.72,11.67384
11283.64,11.68389
11285.57,11.75022
11287.5,11.73488
11289.43,11.62497
11291.36,11.5897
11293.29,11.68221
11295.21,11.73021
11297.14,11.64357
11299.07,11.65202
11301.0,11.70717
11302.93,11.74069
11304.86,11.72228
11306.79,11.72904
11308.71,11.73397
11310.64,11.77082
11312.57,11.8324
11314.5,11.80944
11316.43,11.77697
11318.36,11.73905
11320.29,11.79235
11322.21,11.78674
11324.14,11.75028
11326.07,11.76224
11328.0,11.90986
11329.93,11.91454
11331.86,11.81601
11333.79,11.76786
11335.71,11.77928
11337.64,11.71155
11339.57,11.71231
11341.5,11.82319
11343.43,11.86778
11345.36,11.84719
11347.28,11.85113
11349.21,11.83545
11351.14,11.85484
11353.07,11.76303
11355.0,11.7797
11356.93,11.71594
11358.86,11.728
11360.78,11.72447
11362.71,11.77452
11364.64,11.81535
11366.57,11.78356
11368.5,11.77249
11370.43,11.80231
11372.36,11.81706
11374.28,11.81898
11376.21,11.79414
11378.14,11.88619
11380.07,11.87033
11382.0,11.79594
11383.93,11.81136
11385.85,11.90942
11387.78,11.91933
11389.71,11.87988
11391.64,11.85926
11393.57,11.87611
11395.5,11.84383
11397.43,11.80244
11399.35,11.74084
11401.28,11.71836
11403.21,11.7873
11405.14,11.85115
11407.07,11.82374
11409.0,11.86905
11410.92,11.88285
11412.85,11.9058
11414.78,11.89946
11416.71,11.84967
11418.64,11.8645
11420.57,11.87029
11422.5,11.90565
11424.42,11.95016
11426.35,11.91943
11428.28,11.88712
11430.21,11.8718
11432.14,11.8856
11434.07,11.87934
11436.0,11.94585
11437.92,11.93846
11439.85,11.94327
11441.78,11.98702
11443.71,11.99008
11445.64,11.91059
11447.57,11.90642
11449.5,11.88255
11451.42,11.94101
11453.35,11.93167
11455.28,11.87755
11457.21,11.88519
11459.14,11.93918
11461.07,11.96039
11462.99,11.93063
11464.92,11.94857
11466.85,11.99744
11468.78,11.96192
11470.71,11.95213
11472.64,11.88758
11474.57,11.87685
11476.49,11.86894
11478.42,11.83581
11480.35,11.88436
11482.28,12.02115
11484.21,12.02843
11486.14,11.89296
11488.07,11.91551
11489.99,12.00075
11491.92,11.97641
11493.85,11.88793
11495.78,11.94169
11497.71,11.99754
11499.64,11.91552
11501.56,11.86475
11503.49,11.88141
11505.42,11.81383
11507.35,11.8788
11509.28,11.9606
11511.21,11.90121
11513.14,11.8746
11515.06,11.97121
11516.99,11.95885
11518.92,11.98041
11520.85,11.92223
11522.78,11.90647
11524.71,11.8763
11526.63,11.87423
11528.56,11.91516
11530.49,12.01786
11532.42,12.1105
11534.35,12.03509
11536.28,11.92809
11538.21,11.91355
11540.13,11.91214
11542.06,11.92078
11543.99,11.94471
11545.92,11.99345
11547.85,12.00119
11549.78,12.0251
11551.71,12.07451
11553.63,12.05065
11555.56,11.96845
11557.49,11.94875
11559.42,11.98105
11561.35,11.99649
11563.28,11.96368
11565.21,11.92609
11567.13,11.98101
11569.06,12.0611
11570.99,12.0338
11572.92,11.96548
11574.85,11.98596
11576.78,12.00215
11578.7,12.04706
11580.63,12.07507
11582.56,12.04192
11584.49,11.91658
11586.42,11.88979
11588.35,11.94059
11590.28,12.06909
11592.2,12.00881
11594.13,11.93659
11596.06,12.03045
11597.99,12.1276
11599.92,12.06577
11601.85,12.07161
11603.78,12.05979
11605.7,12.03711
11607.63,12.09887
11609.56,12.09418
11611.49,12.06514
11613.42,11.9709
11615.35,11.98823
11617.27,12.09014
11619.2,12.0574
11621.13,12.05425
11623.06,12.08795
11624.99,12.05464
11626.92,12.00558
11628.85,12.03856
11630.77,12.06138
11632.7,12.06438
11634.63,12.07105
11636.56,12.04347
11638.49,12.04228
11640.42,12.03852
11642.34,12.09024
11644.27,12.15273
11646.2,12.14533
11648.13,12.08015
11650.06,12.01162
11651.99,12.02048
11653.92,12.06593
11655.84,11.96686
11657.77,12.0109
11659.7,12.04104
11661.63,12.0344
11663.56,12.03975
11665.49,12.00633
11667.42,12.10996
11669.34,12.15471
11671.27,12.12822
11673.2,12.11784
11675.13,12.09132
11677.06,12.07971
11678.99,12.07273
11680.92,12.13559
11682.84,12.10301
11684.77,12.032
11686.7,12.04203
11688.63,12.05552
11690.56,12.06673
11692.49,12.04412
11694.41,12.0012
11696.34,12.06453
11698.27,12.05168
11700.2,12.01172
11702.13,12.06431
11704.06,12.11901
11705.99,12.00338
11707.91,11.88408
11709.84,11.9526
11711.77,12.03923
11713.7,12.14285
11715.63,12.14435
11717.56,12.06564
11719.48,12.11862
11721.41,12.01982
11723.34,11.93752
11725.27,11.99895
11727.2,11.95692
11729.13,11.91693
11731.06,11.98972
11732.98,12.07953
11734.91,12.20612
11736.84,12.11824
11738.77,11.96476
11740.7,12.05069
11742.63,12.09982
11744.56,12.00992
11746.48,12.02926
11748.41,12.09753
11750.34,12.09284
11752.27,12.08688
11754.2,11.98262
11756.13,11.98449
11758.05,12.05741
11759.98,12.043
11761.91,11.93808
11763.84,11.94239
11765.77,12.01813
11767.7,12.02651
11769.63,12.0473
11771.55,11.99817
11773.48,12.00221
11775.41,12.07405
11777.34,12.15403
11779.27,12.19927
11781.2,12.04928
11783.13,12.03823
11785.05,12.13731
11786.98,12.17111
11788.91,12.1285
11790.84,11.96941
11792.77,11.91584
11794.7,12.01939
11796.63,12.07055
11798.55,12.01481
11800.48,12.06031
11802.41,12.0215
11804.34,11.88132
11806.27,11.82547
11808.2,11.87427
11810.12,11.93413
11812.05,12.00134
11813.98,12.07319
11815.91,12.16313
11817.84,12.19086
11819.77,12.07214
11821.7,12.00793
11823.62,12.01591
11825.55,12.11721
11827.48,12.14132
11829.41,12.16379
11831.34,12.09846
11833.27,11.90207
11835.19,11.97341
11837.12,12.10895
11839.05,12.12938
11840.98,12.08191
11842.91,11.95293
11844.84,12.00215
11846.77,12.2072
11848.69,12.19578
11850.62,12.13696
11852.55,12.18417
11854.48,12.08667
11856.41,12.12022
11858.34,12.10816
11860.27,12.09895
11862.19,12.11774
11864.12,12.05293
11866.05,12.01534
11867.98,12.02663
11869.91,12.02395
11871.84,12.07334
11873.76,12.06471
11875.69,11.99144
11877.62,11.97116
11879.55,12.0811
11881.48,12.23032
11883.41,12.17405
11885.34,12.08901
11887.26,11.96259
11889.19,11.93328
11891.12,12.05808
11893.05,12.11272
11894.98,12.03181
11896.91,12.07486
11898.83,12.10463
11900.76,12.14027
11902.69,12.06782
11904.62,11.93969
11906.55,11.94037
11908.48,12.02715
11910.41,12.06544
11912.33,12.14332
11914.26,12.0719
11916.19,11.98369
11918.12,12.02285
11920.05,12.1665
11921.98,12.11877
11923.91,12.01692
11925.83,11.99104
11927.76,11.98965
11929.69,12.06806
11931.62,12.08333
11933.55,12.02445
11935.48,12.07323
11937.41,12.14367
11939.33,12.00122
11941.26,11.99858
11943.19,11.95255
11945.12,11.99316
11947.05,11.99552
11948.98,11.98562
11950.9,11.98423
11952.83,11.99378
11954.76,12.00561
11956.69,12.01237
11958.62,11.93389
11960.55,11.8484
11962.48,11.89753
11964.4,12.06046
11966.33,12.15038
11968.26,11.95294
11970.19,12.04067
11972.12,12.14293
11974.05,11.99474
11975.98,11.95003
11977.9,11.94339
11979.83,11.91481
11981.76,11.97537
11983.69,11.82913
11985.62,11.7744
11987.55,11.94404
11989.47,12.03592
11991.4,11.97367
11993.33,12.1343
11995.26,12.15889
11997.19,11.97885
11999.12,11.98409
