Wavenumber,Intensity
3999.706,1.920663
4001.634,1.922355
4003.563,1.92263
4005.491,1.924587
4007.42,1.926945
4009.348,1.921731
4011.277,1.923925
4013.205,1.928321
4015.134,1.927797
4017.062,1.930084
4018.991,1.931489
4020.919,1.932453
4022.848,1.930486
4024.776,1.931051
4026.705,1.935005
4028.633,1.936054
4030.562,1.933882
4032.49,1.934406
4034.419,1.938314
4036.347,1.938462
4038.276,1.93507
4040.204,1.935007
4042.133,1.941301
4044.061,1.943384
4045.99,1.940289
4047.918,1.940134
4049.847,1.942866
4051.775,1.946506
4053.704,1.944164
4055.632,1.942469
4057.561,1.942548
4059.489,1.941544
4061.418,1.944925
4063.346,1.945733
4065.275,1.947495
4067.203,1.950341
4069.132,1.945801
4071.06,1.946818
4072.989,1.948117
4074.917,1.948054
4076.846,1.949275
4078.774,1.949654
4080.703,1.949353
4082.631,1.950302
4084.56,1.954265
4086.488,1.956757
4088.417,1.958294
4090.345,1.954955
4092.274,1.951928
4094.202,1.954632
4096.131,1.952783
4098.059,1.953567
4099.988,1.953417
4101.916,1.955303
4103.845,1.957096
4105.773,1.958886
4107.702,1.957656
4109.63,1.956693
4111.559,1.956971
4113.487,1.961167
4115.416,1.961085
4117.344,1.957994
4119.273,1.956367
4121.201,1.959666
4123.13,1.962807
4125.058,1.964304
4126.987,1.962036
4128.915,1.962679
4130.844,1.963041
4132.772,1.960527
4134.701,1.960476
4136.629,1.963668
4138.558,1.966416
4140.486,1.96661
4142.415,1.965868
4144.343,1.963185
4146.271,1.962885
4148.2,1.96473
4150.129,1.965633
4152.057,1.965772
4153.986,1.96763
4155.914,1.967662
4157.843,1.965467
4159.771,1.965222
4161.7,1.969311
4163.628,1.970202
4165.557,1.968884
4167.485,1.971838
4169.414,1.970873
4171.342,1.97116
4173.271,1.972889
4175.199,1.974267
4177.127,1.976682
4179.056,1.976495
4180.985,1.977934
4182.913,1.978717
4184.842,1.977714
4186.77,1.977704
4188.699,1.981627
4190.627,1.98491
4192.556,1.986839
4194.484,1.98728
4196.413,1.98755
4198.341,1.990025
4200.27,1.992043
4202.198,1.996319
4204.126,1.997118
4206.055,1.998321
4207.983,1.997764
4209.912,1.999472
4211.841,1.999266
4213.769,2.001335
4215.698,2.003981
4217.626,2.005322
4219.555,2.012084
4221.483,2.013894
4223.412,2.012241
4225.34,2.012456
4227.269,2.013975
4229.197,2.015133
4231.125,2.011979
4233.054,2.014195
4234.982,2.016031
4236.911,2.018805
4238.84,2.021174
4240.768,2.021012
4242.697,2.021362
4244.625,2.020866
4246.554,2.017604
4248.482,2.018934
4250.411,2.023054
4252.339,2.024085
4254.268,2.021028
4256.196,2.02159
4258.125,2.020237
4260.053,2.020681
4261.981,2.025421
4263.91,2.028821
4265.838,2.029278
4267.767,2.030369
4269.696,2.032957
4271.624,2.03185
4273.553,2.030321
4275.481,2.030136
4277.41,2.029212
4279.338,2.03186
4281.267,2.033693
4283.195,2.03485
4285.124,2.03673
4287.052,2.03647
4288.98,2.037514
4290.909,2.040351
4292.837,2.040301
4294.766,2.041235
4296.694,2.044391
4298.623,2.042097
4300.552,2.040312
4302.48,2.039083
4304.409,2.035829
4306.337,2.035077
4308.266,2.039028
4310.194,2.040228
4312.123,2.041494
4314.051,2.039694
4315.979,2.036615
4317.908,2.038878
4319.836,2.036248
4321.765,2.033606
4323.693,2.035165
4325.622,2.035938
4327.551,2.033391
4329.479,2.034986
4331.408,2.037846
4333.336,2.038797
4335.265,2.04054
4337.193,2.040711
4339.122,2.042246
4341.05,2.042055
4342.979,2.041159
4344.907,2.041867
4346.835,2.044495
4348.764,2.046402
4350.692,2.04683
4352.621,2.043652
4354.549,2.046135
4356.478,2.044627
4358.407,2.044634
4360.335,2.04674
4362.264,2.045789
4364.192,2.045761
4366.121,2.04274
4368.049,2.043765
4369.978,2.043979
4371.906,2.044157
4373.834,2.04436
4375.763,2.043608
4377.691,2.04443
4379.62,2.044878
4381.548,2.049679
4383.477,2.049012
4385.405,2.045121
4387.334,2.046502
4389.263,2.045952
4391.191,2.044709
4393.12,2.046474
4395.048,2.05049
4396.977,2.049904
4398.905,2.048312
4400.833,2.049984
4402.762,2.050887
4404.69,2.051993
4406.619,2.055822
4408.547,2.053844
4410.476,2.049946
4412.404,2.051864
4414.333,2.058705
4416.262,2.062329
4418.19,2.062396
4420.119,2.061281
4422.047,2.064162
4423.976,2.0706
4425.904,2.075896
4427.833,2.07822
4429.761,2.080572
4431.689,2.083006
4433.618,2.086347
4435.546,2.093605
4437.475,2.096029
4439.403,2.097257
4441.332,2.104284
4443.26,2.112154
4445.189,2.116046
4447.117,2.121264
4449.046,2.127847
4450.975,2.136282
4452.903,2.143813
4454.832,2.147219
4456.76,2.157284
4458.688,2.165585
4460.617,2.170865
4462.545,2.176319
4464.474,2.1823
4466.402,2.189624
4468.331,2.196164
4470.259,2.204821
4472.188,2.211343
4474.116,2.214611
4476.045,2.221611
4477.974,2.231783
4479.902,2.239326
4481.831,2.244273
4483.759,2.249827
4485.688,2.255833
4487.616,2.263644
4489.544,2.267856
4491.473,2.275564
4493.401,2.288
4495.33,2.297912
4497.258,2.302048
4499.187,2.305984
4501.115,2.315883
4503.044,2.326894
4504.972,2.334934
4506.901,2.343302
4508.83,2.351621
4510.758,2.359713
4512.687,2.366547
4514.615,2.37404
4516.543,2.382204
4518.472,2.389999
4520.4,2.399244
4522.329,2.410983
4524.257,2.420735
4526.186,2.428576
4528.114,2.437712
4530.043,2.446844
4531.971,2.453181
4533.9,2.463891
4535.828,2.477304
4537.757,2.486329
4539.686,2.495298
4541.614,2.505075
4543.542,2.517987
4545.471,2.525778
4547.399,2.532539
4549.328,2.542265
4551.256,2.553862
4553.185,2.565235
4555.113,2.576601
4557.042,2.588339
4558.97,2.602294
4560.899,2.614171
4562.827,2.621344
4564.756,2.63245
4566.685,2.64025
4568.613,2.645785
4570.542,2.653572
4572.47,2.662753
4574.398,2.670548
4576.327,2.677614
4578.255,2.687508
4580.184,2.695726
4582.112,2.70019
4584.041,2.708244
4585.969,2.713148
4587.898,2.714669
4589.826,2.720751
4591.755,2.729311
4593.683,2.735709
4595.612,2.737223
4597.54,2.742316
4599.469,2.748915
4601.397,2.757249
4603.326,2.762365
4605.254,2.765745
4607.183,2.770055
4609.111,2.77208
4611.04,2.774478
4612.968,2.77675
4614.897,2.779384
4616.825,2.784354
4618.754,2.789006
4620.682,2.794251
4622.611,2.801696
4624.539,2.807004
4626.468,2.809228
4628.396,2.813666
4630.325,2.815787
4632.253,2.81656
4634.182,2.821888
4636.11,2.827081
4638.039,2.827457
4639.967,2.830233
4641.896,2.830264
4643.824,2.829298
4645.753,2.830045
4647.681,2.828656
4649.61,2.829426
4651.538,2.827451
4653.467,2.823673
4655.396,2.818006
4657.324,2.812017
4659.252,2.803904
4661.181,2.793346
4663.109,2.785167
4665.038,2.779499
4666.966,2.777971
4668.895,2.782493
4670.823,2.790534
4672.752,2.798267
4674.68,2.811022
4676.609,2.829145
4678.537,2.838988
4680.466,2.847611
4682.394,2.856635
4684.323,2.864032
4686.251,2.869266
4688.18,2.873205
4690.108,2.873985
4692.037,2.877225
4693.965,2.878911
4695.894,2.87913
4697.822,2.883603
4699.751,2.883925
4701.679,2.881024
4703.608,2.882345
4705.536,2.886511
4707.465,2.884663
4709.393,2.881895
4711.322,2.882859
4713.25,2.879728
4715.179,2.876485
4717.107,2.87345
4719.036,2.867311
4720.964,2.86236
4722.893,2.856865
4724.821,2.852002
4726.75,2.846982
4728.678,2.843759
4730.606,2.838598
4732.535,2.836727
4734.464,2.833662
4736.392,2.831979
4738.321,2.830989
4740.249,2.829545
4742.178,2.82461
4744.106,2.818271
4746.035,2.816186
4747.963,2.814247
4749.892,2.814635
4751.82,2.811972
4753.749,2.805889
4755.677,2.802228
4757.605,2.799233
4759.534,2.795162
4761.463,2.790781
4763.391,2.78646
4765.32,2.781962
4767.248,2.776976
4769.177,2.771366
4771.105,2.761616
4773.034,2.75193
4774.962,2.744157
4776.891,2.740326
4778.819,2.73463
4780.748,2.731971
4782.676,2.730865
4784.604,2.727331
4786.533,2.72856
4788.462,2.727542
4790.39,2.72296
4792.319,2.722504
4794.247,2.718678
4796.176,2.714133
4798.104,2.713518
4800.033,2.712004
4801.961,2.707362
4803.89,2.702263
4805.818,2.698935
4807.747,2.693748
4809.675,2.687269
4811.604,2.678086
4813.532,2.667203
4815.46,2.66358
4817.389,2.65862
4819.317,2.649932
4821.246,2.643988
4823.175,2.638683
4825.103,2.635441
4827.032,2.630743
4828.96,2.623188
4830.889,2.618362
4832.817,2.614405
4834.746,2.607569
4836.674,2.602643
4838.603,2.600177
4840.531,2.592355
4842.459,2.581679
4844.388,2.575247
4846.316,2.568794
4848.245,2.559324
4850.174,2.552974
4852.102,2.543113
4854.031,2.536193
4855.959,2.530141
4857.888,2.52149
4859.816,2.516873
4861.745,2.51476
4863.673,2.511786
4865.602,2.508492
4867.53,2.505059
4869.458,2.503786
4871.387,2.504796
4873.315,2.507615
4875.244,2.510083
4877.172,2.511106
4879.101,2.512323
4881.03,2.512142
4882.958,2.513499
4884.887,2.515865
4886.815,2.519771
4888.744,2.521073
4890.672,2.525629
4892.601,2.532564
4894.529,2.533804
4896.458,2.53154
4898.386,2.531331
4900.314,2.534419
4902.243,2.535724
4904.171,2.536279
4906.1,2.540805
4908.028,2.543124
4909.957,2.540148
4911.886,2.541531
4913.814,2.543587
4915.743,2.544723
4917.671,2.547072
4919.6,2.542679
4921.528,2.540765
4923.457,2.541831
4925.385,2.541952
4927.313,2.540968
4929.242,2.540589
4931.17,2.539301
4933.099,2.537376
4935.027,2.536432
4936.956,2.537016
4938.885,2.536093
4940.813,2.532531
4942.742,2.531448
4944.67,2.528568
4946.599,2.521465
4948.527,2.512716
4950.456,2.504697
4952.384,2.494923
4954.313,2.482846
4956.241,2.468334
4958.169,2.45501
4960.098,2.44436
4962.026,2.437586
4963.955,2.432584
4965.883,2.430275
4967.812,2.431408
4969.74,2.436609
4971.669,2.443617
4973.598,2.444577
4975.526,2.449782
4977.455,2.453641
4979.383,2.457017
4981.312,2.460579
4983.24,2.465626
4985.168,2.472165
4987.097,2.476576
4989.025,2.482288
4990.954,2.488608
4992.882,2.492641
4994.811,2.500609
4996.739,2.508257
4998.668,2.511832
5000.597,2.519113
5002.525,2.527483
5004.454,2.534534
5006.382,2.538427
5008.311,2.541718
5010.239,2.54206
5012.167,2.542269
5014.096,2.543524
5016.024,2.548045
5017.953,2.547533
5019.881,2.548082
5021.81,2.550542
5023.738,2.551641
5025.667,2.554318
5027.596,2.562505
5029.524,2.566386
5031.452,2.569908
5033.381,2.56949
5035.31,2.567688
5037.238,2.571991
5039.167,2.573053
5041.095,2.569822
5043.023,2.569118
5044.952,2.57188
5046.88,2.571601
5048.809,2.571905
5050.737,2.568667
5052.666,2.565703
5054.595,2.564627
5056.523,2.561652
5058.451,2.557243
5060.38,2.555808
5062.309,2.552344
5064.237,2.551285
5066.166,2.550643
5068.094,2.552142
5070.022,2.553113
5071.951,2.553248
5073.879,2.551443
5075.808,2.551495
5077.736,2.549989
5079.665,2.55159
5081.593,2.549492
5083.522,2.548481
5085.45,2.549521
5087.379,2.544421
5089.308,2.541718
5091.236,2.542034
5093.165,2.541088
5095.093,2.541129
5097.021,2.540926
5098.95,2.538353
5100.878,2.537319
5102.807,2.539167
5104.735,2.541166
5106.664,2.545407
5108.592,2.547895
5110.521,2.548941
5112.449,2.551999
5114.378,2.551977
5116.307,2.552629
5118.235,2.554208
5120.163,2.556598
5122.092,2.557969
5124.021,2.561936
5125.949,2.56581
5127.877,2.566595
5129.806,2.568117
5131.734,2.567962
5133.663,2.567271
5135.591,2.565712
5137.52,2.563624
5139.448,2.562313
5141.377,2.560635
5143.305,2.557079
5145.234,2.555981
5147.162,2.556217
5149.091,2.55377
5151.02,2.547903
5152.948,2.545278
5154.876,2.543699
5156.805,2.542485
5158.733,2.542577
5160.662,2.540244
5162.59,2.540372
5164.519,2.540522
5166.447,2.541285
5168.376,2.544746
5170.304,2.54553
5172.233,2.546278
5174.161,2.541165
5176.09,2.538512
5178.019,2.539558
5179.947,2.538518
5181.875,2.533596
5183.804,2.536881
5185.732,2.534798
5187.661,2.536887
5189.589,2.533172
5191.518,2.531984
5193.446,2.536188
5195.375,2.543059
5197.303,2.543551
5199.232,2.539355
5201.16,2.54019
5203.089,2.544821
5205.018,2.55585
5206.946,2.54667
5208.874,2.540076
5210.803,2.539619
5212.731,2.539447
5214.66,2.53879
5216.588,2.542776
5218.517,2.542853
5220.445,2.541819
5222.374,2.545764
5224.302,2.554373
5226.231,2.545489
5228.159,2.545402
5230.088,2.550373
5232.016,2.549216
5233.945,2.54569
5235.873,2.548022
5237.802,2.554258
5239.73,2.551592
5241.659,2.557486
5243.587,2.561759
5245.516,2.563512
5247.444,2.56901
5249.373,2.555026
5251.301,2.55779
5253.229,2.565698
5255.158,2.556319
5257.087,2.551939
5259.015,2.563009
5260.944,2.571852
5262.872,2.574351
5264.801,2.562853
5266.729,2.566656
5268.658,2.564983
5270.586,2.55815
5272.515,2.559922
5274.443,2.559855
5276.372,2.558429
5278.3,2.563269
5280.229,2.563038
5282.157,2.562941
5284.086,2.566811
5286.014,2.561092
5287.943,2.565553
5289.871,2.565499
5291.8,2.555095
5293.729,2.560632
5295.657,2.559026
5297.585,2.560828
5299.514,2.556233
5301.442,2.547729
5303.371,2.546395
5305.299,2.553907
5307.228,2.550709
5309.156,2.539314
5311.085,2.543779
5313.013,2.547232
5314.941,2.555545
5316.87,2.560321
5318.799,2.565773
5320.727,2.573692
5322.656,2.577414
5324.584,2.583015
5326.513,2.590552
5328.441,2.580046
5330.37,2.587272
5332.298,2.58472
5334.227,2.579527
5336.155,2.586087
5338.084,2.575927
5340.012,2.55797
5341.94,2.56678
5343.869,2.562958
5345.798,2.539408
5347.726,2.537694
5349.655,2.529689
5351.583,2.537222
5353.512,2.524901
5355.44,2.504697
5357.369,2.504174
5359.297,2.50016
5361.226,2.498516
5363.154,2.489865
5365.083,2.47829
5367.011,2.473049
5368.939,2.468191
5370.868,2.466778
5372.797,2.467534
5374.725,2.462187
5376.654,2.44963
5378.582,2.441697
5380.511,2.446674
5382.439,2.445822
5384.368,2.447285
5386.296,2.433028
5388.225,2.427785
5390.153,2.428014
5392.082,2.430157
5394.01,2.418866
5395.938,2.412265
5397.867,2.40754
5399.796,2.403816
5401.724,2.400481
5403.652,2.391742
5405.581,2.384189
5407.51,2.386469
5409.438,2.380246
5411.367,2.369954
5413.295,2.360778
5415.224,2.337014
5417.152,2.334737
5419.081,2.335467
5421.009,2.335576
5422.938,2.330053
5424.866,2.328613
5426.795,2.337357
5428.723,2.327261
5430.651,2.316343
5432.58,2.330501
5434.509,2.322871
5436.437,2.308478
5438.366,2.315581
5440.294,2.320358
5442.223,2.311121
5444.151,2.31775
5446.08,2.307771
5448.008,2.310492
5449.937,2.305053
5451.865,2.300137
5453.793,2.302129
5455.722,2.301973
5457.65,2.302627
5459.579,2.302851
5461.508,2.293643
5463.436,2.296481
5465.365,2.291742
5467.293,2.287551
5469.222,2.285112
5471.15,2.284755
5473.079,2.291564
5475.007,2.285137
5476.936,2.267547
5478.864,2.271879
5480.792,2.270721
5482.721,2.268889
5484.649,2.26756
5486.578,2.269735
5488.507,2.265116
5490.435,2.266448
5492.363,2.265727
5494.292,2.254902
5496.221,2.256852
5498.149,2.260766
5500.078,2.260358
5502.006,2.263178
5503.935,2.266768
5505.863,2.269646
5507.792,2.265673
5509.72,2.263259
5511.648,2.270328
5513.577,2.272759
5515.505,2.272587
5517.434,2.268368
5519.362,2.272842
5521.291,2.274734
5523.22,2.274862
5525.148,2.272843
5527.077,2.269926
5529.005,2.26472
5530.934,2.263896
5532.862,2.268479
5534.791,2.273426
5536.719,2.270879
5538.647,2.267751
5540.576,2.266775
5542.504,2.264308
5544.433,2.264345
5546.361,2.266623
5548.29,2.265873
5550.219,2.266197
5552.147,2.267131
5554.076,2.264215
5556.004,2.262553
5557.933,2.264802
5559.861,2.267201
5561.79,2.267214
5563.718,2.269729
5565.646,2.273617
5567.575,2.277995
5569.503,2.279965
5571.432,2.283103
5573.36,2.286489
5575.289,2.290293
5577.218,2.296849
5579.146,2.301669
5581.074,2.305701
5583.003,2.306942
5584.932,2.311189
5586.86,2.315357
5588.789,2.314831
5590.717,2.314821
5592.646,2.313281
5594.574,2.31129
5596.502,2.312421
5598.431,2.309921
5600.359,2.306397
5602.288,2.302915
5604.216,2.296111
5606.145,2.291569
5608.073,2.2874
5610.002,2.281325
5611.931,2.276103
5613.859,2.272106
5615.788,2.268776
5617.716,2.265594
5619.645,2.259937
5621.573,2.255991
5623.501,2.251799
5625.43,2.246946
5627.358,2.246833
5629.287,2.243592
5631.215,2.236651
5633.144,2.23366
5635.072,2.233924
5637.001,2.231315
5638.93,2.226667
5640.858,2.219025
5642.786,2.210402
5644.715,2.205345
5646.644,2.201647
5648.572,2.195013
5650.5,2.187929
5652.429,2.182337
5654.357,2.176796
5656.286,2.173979
5658.214,2.170531
5660.143,2.169175
5662.071,2.16912
5664.0,2.170731
5665.929,2.17093
5667.857,2.172026
5669.785,2.172523
5671.714,2.17488
5673.643,2.175504
5675.571,2.175855
5677.5,2.180254
5679.428,2.185446
5681.356,2.189224
5683.285,2.18822
5685.213,2.189141
5687.142,2.190355
5689.07,2.195056
5690.999,2.196968
5692.927,2.197818
5694.856,2.202867
5696.784,2.208339
5698.713,2.212298
5700.642,2.216074
5702.57,2.221764
5704.499,2.229466
5706.427,2.236006
5708.355,2.240231
5710.284,2.242314
5712.212,2.246373
5714.141,2.250925
5716.069,2.24655
5717.998,2.243466
5719.926,2.242979
5721.855,2.237882
5723.783,2.230184
5725.712,2.220008
5727.641,2.209972
5729.569,2.20384
5731.497,2.200125
5733.426,2.197139
5735.354,2.198349
5737.283,2.1986
5739.211,2.196557
5741.14,2.192681
5743.068,2.18974
5744.997,2.186999
5746.925,2.183626
5748.854,2.176983
5750.782,2.174988
5752.711,2.17559
5754.639,2.172873
5756.568,2.170394
5758.496,2.169785
5760.425,2.170266
5762.354,2.16804
5764.282,2.165846
5766.21,2.164527
5768.139,2.164885
5770.067,2.16708
5771.996,2.166312
5773.924,2.165887
5775.853,2.166684
5777.781,2.166839
5779.71,2.167174
5781.638,2.168007
5783.567,2.167487
5785.495,2.169555
5787.424,2.169874
5789.353,2.1661
5791.281,2.166734
5793.209,2.167099
5795.138,2.168988
5797.066,2.17174
5798.995,2.17043
5800.923,2.168752
5802.852,2.171384
5804.78,2.168958
5806.709,2.168989
5808.637,2.171452
5810.566,2.170638
5812.494,2.173569
5814.423,2.178142
5816.352,2.180395
5818.28,2.180432
5820.208,2.180813
5822.137,2.182348
5824.065,2.185014
5825.994,2.184392
5827.922,2.185912
5829.851,2.188297
5831.779,2.191814
5833.708,2.196414
5835.636,2.203204
5837.565,2.209238
5839.493,2.208511
5841.422,2.20792
5843.35,2.214365
5845.279,2.221338
5847.207,2.227312
5849.136,2.236717
5851.064,2.249125
5852.993,2.26189
5854.921,2.271556
5856.85,2.282218
5858.778,2.300186
5860.707,2.320876
5862.635,2.339805
5864.563,2.361245
5866.492,2.38532
5868.421,2.409798
5870.349,2.435277
5872.278,2.465426
5874.206,2.500772
5876.135,2.53653
5878.063,2.56837
5879.992,2.60353
5881.92,2.639482
5883.849,2.67189
5885.777,2.708066
5887.706,2.744083
5889.634,2.773808
5891.563,2.802296
5893.491,2.826646
5895.42,2.850747
5897.348,2.871207
5899.277,2.88483
5901.205,2.904418
5903.134,2.925835
5905.063,2.952199
5906.991,2.979099
5908.919,3.006356
5910.848,3.035698
5912.776,3.067292
5914.705,3.10886
5916.633,3.153182
5918.562,3.1963
5920.49,3.241028
5922.419,3.290666
5924.347,3.340563
5926.276,3.38864
5928.204,3.440417
5930.133,3.486137
5932.061,3.53369
5933.99,3.578323
5935.918,3.624562
5937.847,3.667115
5939.775,3.709869
5941.704,3.748634
5943.632,3.787208
5945.561,3.822538
5947.489,3.859054
5949.418,3.891447
5951.346,3.924358
5953.274,3.960294
5955.203,3.994935
5957.132,4.029936
5959.06,4.067225
5960.989,4.101988
5962.917,4.139487
5964.846,4.178811
5966.774,4.21964
5968.703,4.25648
5970.631,4.295711
5972.56,4.331024
5974.488,4.36609
5976.417,4.399734
5978.345,4.432701
5980.273,4.466129
5982.202,4.502269
5984.131,4.534533
5986.059,4.561377
5987.988,4.587545
5989.916,4.618946
5991.845,4.651947
5993.773,4.679949
5995.702,4.706193
5997.63,4.730515
5999.559,4.753955
6001.487,4.778395
6003.416,4.805891
6005.344,4.832722
6007.272,4.860013
6009.201,4.885189
6011.13,4.909886
6013.058,4.933702
6014.986,4.956173
6016.915,4.979367
6018.844,5.003208
6020.772,5.020926
6022.701,5.044538
6024.629,5.072613
6026.558,5.091998
6028.486,5.109446
6030.415,5.129497
6032.343,5.148361
6034.271,5.16395
6036.2,5.183036
6038.129,5.202523
6040.057,5.218468
6041.985,5.23394
6043.914,5.252967
6045.843,5.266063
6047.771,5.277189
6049.7,5.293036
6051.628,5.312724
6053.557,5.327698
6055.485,5.339046
6057.414,5.349573
6059.342,5.363698
6061.271,5.376156
6063.199,5.389501
6065.128,5.400524
6067.056,5.410079
6068.984,5.424791
6070.913,5.438458
6072.842,5.442729
6074.77,5.453765
6076.698,5.462269
6078.627,5.471587
6080.556,5.481071
6082.484,5.492586
6084.413,5.502949
6086.341,5.509858
6088.27,5.516994
6090.198,5.526373
6092.126,5.532354
6094.055,5.535897
6095.983,5.539388
6097.912,5.546179
6099.841,5.551184
6101.769,5.556045
6103.697,5.56178
6105.626,5.57194
6107.555,5.577735
6109.483,5.583886
6111.412,5.590826
6113.34,5.594331
6115.269,5.59703
6117.197,5.602663
6119.125,5.609643
6121.054,5.620663
6122.982,5.628122
6124.911,5.638068
6126.84,5.649663
6128.768,5.65976
6130.696,5.672225
6132.625,5.681944
6134.554,5.687888
6136.482,5.699175
6138.41,5.71049
6140.339,5.71819
6142.268,5.725787
6144.196,5.740034
6146.125,5.74938
6148.053,5.75725
6149.981,5.766984
6151.91,5.778957
6153.839,5.78688
6155.767,5.793831
6157.695,5.804753
6159.624,5.815208
6161.553,5.823581
6163.481,5.834143
6165.409,5.842371
6167.338,5.852285
6169.267,5.866726
6171.195,5.875515
6173.124,5.880332
6175.052,5.889597
6176.98,5.898117
6178.909,5.909536
6180.837,5.915523
6182.766,5.923599
6184.694,5.93153
6186.623,5.93733
6188.552,5.942225
6190.48,5.950233
6192.408,5.95393
6194.337,5.954841
6196.266,5.961213
6198.194,5.971925
6200.123,5.974514
6202.051,5.98184
6203.979,5.988129
6205.908,5.990811
6207.836,5.993679
6209.765,6.002489
6211.693,6.008832
6213.622,6.012079
6215.551,6.013922
6217.479,6.018454
6219.407,6.024796
6221.336,6.028516
6223.265,6.032156
6225.193,6.036776
6227.121,6.039137
6229.05,6.041806
6230.979,6.048624
6232.907,6.056861
6234.835,6.056038
6236.764,6.057642
6238.692,6.060837
6240.621,6.065019
6242.549,6.06517
6244.478,6.06528
6246.406,6.063486
6248.335,6.068756
6250.264,6.072008
6252.192,6.072855
6254.12,6.077051
6256.049,6.078695
6257.978,6.079563
6259.906,6.084488
6261.834,6.084203
6263.763,6.081275
6265.691,6.084179
6267.62,6.086195
6269.548,6.08682
6271.477,6.08763
6273.405,6.09151
6275.334,6.095859
6277.263,6.092546
6279.191,6.095504
6281.119,6.099037
6283.048,6.100643
6284.977,6.09763
6286.905,6.10027
6288.833,6.102557
6290.762,6.103109
6292.69,6.101897
6294.619,6.104012
6296.547,6.104519
6298.476,6.106922
6300.404,6.106598
6302.333,6.107121
6304.262,6.107772
6306.19,6.11213
6308.118,6.11167
6310.047,6.11221
6311.976,6.111007
6313.904,6.112433
6315.832,6.112382
6317.761,6.113378
6319.689,6.108596
6321.618,6.105942
6323.546,6.10391
6325.475,6.100404
6327.403,6.097818
6329.332,6.097675
6331.26,6.099833
6333.189,6.095671
6335.117,6.087173
6337.046,6.084489
6338.975,6.083518
6340.903,6.085273
6342.831,6.076814
6344.76,6.069376
6346.688,6.064108
6348.617,6.063319
6350.545,6.057893
6352.474,6.04934
6354.402,6.043964
6356.331,6.041349
6358.259,6.03415
6360.188,6.027369
6362.116,6.023328
6364.045,6.016057
6365.974,6.00491
6367.902,5.997945
6369.83,5.990926
6371.759,5.979426
6373.688,5.965
6375.616,5.956445
6377.544,5.951087
6379.473,5.946237
6381.401,5.939782
6383.33,5.936053
6385.258,5.932067
6387.187,5.925838
6389.115,5.924459
6391.044,5.92504
6392.973,5.921399
6394.901,5.914346
6396.829,5.907553
6398.758,5.90385
6400.687,5.892276
6402.615,5.884804
6404.543,5.875592
6406.472,5.862687
6408.4,5.849726
6410.329,5.833653
6412.257,5.820025
6414.186,5.810771
6416.114,5.798856
6418.043,5.78686
6419.971,5.779127
6421.9,5.776227
6423.828,5.771077
6425.757,5.76774
6427.686,5.76129
6429.614,5.75449
6431.542,5.750725
6433.471,5.743152
6435.399,5.733552
6437.328,5.726091
6439.256,5.715451
6441.185,5.696136
6443.113,5.677818
6445.042,5.667118
6446.97,5.652575
6448.898,5.634716
6450.827,5.618764
6452.756,5.600567
6454.685,5.579524
6456.613,5.556165
6458.541,5.530531
6460.47,5.501806
6462.398,5.465413
6464.327,5.429199
6466.255,5.388651
6468.184,5.33625
6470.112,5.284838
6472.041,5.23175
6473.969,5.174219
6475.897,5.122565
6477.826,5.079119
6479.755,5.045493
6481.684,5.02752
6483.612,5.021105
6485.54,5.021129
6487.469,5.028356
6489.397,5.042315
6491.326,5.064161
6493.254,5.086026
6495.183,5.104386
6497.111,5.118404
6499.04,5.133612
6500.968,5.152893
6502.896,5.169272
6504.825,5.183337
6506.754,5.198944
6508.682,5.211795
6510.61,5.228232
6512.539,5.242367
6514.468,5.251506
6516.396,5.259298
6518.325,5.268454
6520.253,5.275486
6522.182,5.28062
6524.11,5.28488
6526.039,5.294588
6527.967,5.304755
6529.896,5.312624
6531.824,5.320995
6533.753,5.327344
6535.681,5.333047
6537.609,5.337789
6539.538,5.339464
6541.467,5.346705
6543.396,5.353462
6545.324,5.357037
6547.252,5.359354
6549.181,5.365094
6551.109,5.367885
6553.038,5.368142
6554.966,5.370115
6556.895,5.374583
6558.823,5.381306
6560.752,5.381512
6562.68,5.388421
6564.608,5.394833
6566.537,5.400677
6568.466,5.407638
6570.394,5.412159
6572.323,5.420471
6574.251,5.426974
6576.18,5.429577
6578.108,5.436561
6580.037,5.446249
6581.965,5.446866
6583.894,5.444628
6585.822,5.443115
6587.751,5.446139
6589.679,5.451534
6591.607,5.451447
6593.536,5.450266
6595.465,5.453852
6597.393,5.458053
6599.321,5.456459
6601.25,5.459829
6603.179,5.455306
6605.107,5.453128
6607.036,5.449768
6608.964,5.450031
6610.893,5.453331
6612.821,5.448938
6614.75,5.450406
6616.678,5.451853
6618.606,5.449689
6620.535,5.446868
6622.464,5.444228
6624.392,5.43582
6626.32,5.435308
6628.249,5.435163
6630.178,5.429231
6632.106,5.425981
6634.035,5.421559
6635.963,5.417818
6637.892,5.417712
6639.82,5.414146
6641.749,5.408399
6643.677,5.400392
6645.605,5.393986
6647.534,5.389494
6649.463,5.384062
6651.391,5.378033
6653.319,5.372582
6655.248,5.366127
6657.177,5.362659
6659.105,5.358242
6661.034,5.350501
6662.962,5.341074
6664.891,5.332592
6666.819,5.325363
6668.748,5.323292
6670.676,5.319836
6672.604,5.315841
6674.533,5.309023
6676.462,5.301169
6678.39,5.285264
6680.318,5.273171
6682.247,5.269044
6684.176,5.261896
6686.104,5.248184
6688.032,5.243033
6689.961,5.236397
6691.89,5.223565
6693.818,5.213471
6695.747,5.200922
6697.675,5.193021
6699.604,5.185252
6701.532,5.173824
6703.46,5.165957
6705.389,5.15457
6707.317,5.144639
6709.246,5.129002
6711.175,5.117138
6713.103,5.10973
6715.031,5.099019
6716.96,5.085485
6718.889,5.072916
6720.817,5.06425
6722.746,5.055088
6724.674,5.044616
6726.603,5.03378
6728.531,5.024339
6730.459,5.013346
6732.388,4.998932
6734.316,4.990511
6736.245,4.983681
6738.174,4.970163
6740.102,4.962001
6742.03,4.957844
6743.959,4.939843
6745.888,4.924427
6747.816,4.916694
6749.745,4.907938
6751.673,4.898164
6753.602,4.89087
6755.53,4.878141
6757.458,4.868553
6759.387,4.859517
6761.315,4.851583
6763.244,4.840353
6765.173,4.829065
6767.101,4.818977
6769.029,4.804319
6770.958,4.787144
6772.887,4.771769
6774.815,4.761621
6776.743,4.746233
6778.672,4.723861
6780.601,4.706293
6782.529,4.685757
6784.458,4.671122
6786.386,4.658205
6788.314,4.640058
6790.243,4.618071
6792.171,4.59572
6794.1,4.578723
6796.028,4.559371
6797.957,4.534879
6799.886,4.511468
6801.814,4.493922
6803.742,4.475799
6805.671,4.451593
6807.6,4.434235
6809.528,4.417876
6811.457,4.399394
6813.385,4.377828
6815.313,4.358187
6817.242,4.336209
6819.17,4.31652
6821.099,4.297252
6823.027,4.277044
6824.956,4.253029
6826.885,4.234404
6828.813,4.21433
6830.741,4.188686
6832.67,4.171673
6834.599,4.158206
6836.527,4.140544
6838.455,4.129047
6840.384,4.119711
6842.313,4.114678
6844.241,4.102495
6846.169,4.094572
6848.098,4.086305
6850.026,4.074359
6851.955,4.067233
6853.884,4.05918
6855.812,4.04688
6857.74,4.028269
6859.669,4.020683
6861.598,4.016003
6863.526,4.006152
6865.454,3.991881
6867.383,3.976332
6869.312,3.963584
6871.24,3.956013
6873.168,3.945773
6875.097,3.931629
6877.025,3.920787
6878.954,3.9089
6880.882,3.892731
6882.811,3.878713
6884.739,3.863817
6886.668,3.849788
6888.597,3.835598
6890.525,3.818513
6892.453,3.802571
6894.382,3.785129
6896.311,3.774838
6898.239,3.763985
6900.167,3.749274
6902.096,3.744055
6904.024,3.732609
6905.953,3.721636
6907.881,3.713792
6909.81,3.707772
6911.738,3.696161
6913.667,3.684985
6915.596,3.671467
6917.524,3.656418
6919.452,3.644624
6921.381,3.631655
6923.31,3.614014
6925.238,3.602635
6927.166,3.591074
6929.095,3.570935
6931.023,3.553766
6932.952,3.533988
6934.88,3.512446
6936.809,3.489265
6938.737,3.467543
6940.666,3.448865
6942.594,3.427564
6944.523,3.412374
6946.451,3.403975
6948.38,3.389789
6950.309,3.380454
6952.237,3.376091
6954.165,3.376438
6956.094,3.368392
6958.022,3.364686
6959.951,3.365418
6961.879,3.367108
6963.808,3.363688
6965.736,3.361632
6967.665,3.363065
6969.593,3.369321
6971.521,3.373768
6973.45,3.371765
6975.379,3.359757
6977.308,3.355761
6979.236,3.358079
6981.164,3.357741
6983.093,3.35216
6985.021,3.347622
6986.95,3.343706
6988.878,3.337589
6990.807,3.334132
6992.735,3.331045
6994.664,3.324705
6996.592,3.319667
6998.521,3.313721
7000.449,3.307052
7002.378,3.296427
7004.307,3.287155
7006.235,3.277575
7008.163,3.264515
7010.092,3.250544
7012.021,3.243564
7013.949,3.236444
7015.877,3.227456
7017.806,3.220297
7019.734,3.216829
7021.663,3.216027
7023.591,3.209123
7025.52,3.201691
7027.448,3.202066
7029.377,3.205467
7031.305,3.214807
7033.234,3.220132
7035.162,3.219263
7037.091,3.216521
7039.02,3.218539
7040.948,3.215879
7042.876,3.214497
7044.805,3.209718
7046.733,3.198812
7048.662,3.17855
7050.59,3.15833
7052.519,3.142069
7054.447,3.122089
7056.376,3.096412
7058.304,3.073573
7060.232,3.051384
7062.161,3.043694
7064.09,3.044665
7066.019,3.056559
7067.947,3.065759
7069.875,3.089437
7071.804,3.115723
7073.732,3.144963
7075.661,3.174031
7077.589,3.205003
7079.518,3.235116
7081.446,3.255092
7083.375,3.274996
7085.303,3.293938
7087.231,3.306697
7089.16,3.319645
7091.089,3.337825
7093.018,3.357702
7094.946,3.370582
7096.874,3.379458
7098.803,3.392445
7100.731,3.40955
7102.66,3.428623
7104.588,3.457268
7106.517,3.473746
7108.445,3.491323
7110.374,3.512685
7112.302,3.534333
7114.23,3.557711
7116.159,3.588811
7118.088,3.599328
7120.016,3.610442
7121.944,3.63049
7123.873,3.645196
7125.802,3.654009
7127.73,3.655241
7129.659,3.655989
7131.587,3.657526
7133.516,3.653852
7135.444,3.64226
7137.373,3.636058
7139.301,3.622736
7141.229,3.596816
7143.158,3.58241
7145.087,3.562517
7147.015,3.531677
7148.943,3.498838
7150.872,3.463446
7152.801,3.418508
7154.729,3.371548
7156.658,3.316058
7158.586,3.261594
7160.515,3.183255
7162.443,3.093638
7164.372,3.023924
7166.3,2.953179
7168.229,2.900747
7170.157,2.858874
7172.086,2.841016
7174.014,2.841503
7175.942,2.865176
7177.871,2.8962
7179.8,2.941984
7181.729,2.987275
7183.657,3.030158
7185.585,3.082236
7187.514,3.132413
7189.442,3.185395
7191.371,3.230613
7193.299,3.282302
7195.228,3.331934
7197.156,3.381989
7199.085,3.42428
7201.013,3.477676
7202.941,3.522844
7204.87,3.5613
7206.799,3.606431
7208.727,3.666777
7210.655,3.713363
7212.584,3.749414
7214.513,3.78799
7216.441,3.832443
7218.37,3.878354
7220.298,3.921588
7222.227,3.958831
7224.155,4.012124
7226.083,4.065434
7228.012,4.104222
7229.94,4.155437
7231.869,4.207881
7233.798,4.230873
7235.726,4.268538
7237.654,4.305065
7239.583,4.351346
7241.512,4.402017
7243.44,4.437965
7245.369,4.466937
7247.297,4.502645
7249.226,4.540635
7251.154,4.590278
7253.083,4.629846
7255.011,4.663208
7256.939,4.700541
7258.868,4.738243
7260.797,4.776464
7262.725,4.815258
7264.653,4.849496
7266.582,4.893995
7268.511,4.933579
7270.439,4.972106
7272.368,5.016444
7274.296,5.057453
7276.225,5.089972
7278.153,5.12656
7280.082,5.163345
7282.01,5.204594
7283.938,5.238043
7285.867,5.27775
7287.796,5.314719
7289.724,5.346814
7291.652,5.381466
7293.581,5.424497
7295.51,5.452381
7297.438,5.487911
7299.366,5.53112
7301.295,5.561142
7303.224,5.588377
7305.152,5.626524
7307.081,5.665734
7309.009,5.702975
7310.938,5.748521
7312.866,5.772467
7314.794,5.801283
7316.723,5.830164
7318.651,5.855817
7320.58,5.884769
7322.509,5.927782
7324.437,5.948107
7326.365,5.973907
7328.294,5.999341
7330.223,6.011899
7332.151,6.030878
7334.08,6.046587
7336.008,6.061552
7337.937,6.086408
7339.865,6.116225
7341.793,6.11619
7343.722,6.129423
7345.65,6.14607
7347.579,6.16888
7349.508,6.171986
7351.436,6.176861
7353.364,6.197429
7355.293,6.23144
7357.222,6.242255
7359.15,6.250583
7361.079,6.266854
7363.007,6.291193
7364.936,6.303576
7366.864,6.327509
7368.792,6.353969
7370.721,6.372529
7372.649,6.391663
7374.578,6.416827
7376.507,6.425936
7378.435,6.443852
7380.363,6.468054
7382.292,6.480497
7384.221,6.493465
7386.149,6.50828
7388.077,6.515989
7390.006,6.529994
7391.935,6.539932
7393.863,6.551038
7395.792,6.559361
7397.72,6.574862
7399.648,6.582096
7401.577,6.58748
7403.505,6.599726
7405.434,6.606641
7407.362,6.604536
7409.291,6.61549
7411.22,6.62448
7413.148,6.630264
7415.076,6.632463
7417.005,6.63514
7418.934,6.638218
7420.862,6.650452
7422.791,6.654003
7424.719,6.657654
7426.647,6.66569
7428.576,6.673449
7430.504,6.677954
7432.433,6.672658
7434.361,6.668619
7436.29,6.674004
7438.219,6.678787
7440.147,6.679344
7442.075,6.682902
7444.004,6.683281
7445.933,6.691737
7447.861,6.698175
7449.789,6.702098
7451.718,6.70877
7453.646,6.710121
7455.575,6.71079
7457.503,6.711922
7459.432,6.715775
7461.36,6.717816
7463.289,6.718977
7465.218,6.716617
7467.146,6.719557
7469.074,6.726827
7471.003,6.724625
7472.932,6.720963
7474.86,6.720964
7476.788,6.724746
7478.717,6.722788
7480.646,6.723338
7482.574,6.733027
7484.502,6.732027
7486.431,6.731404
7488.359,6.725522
7490.288,6.720405
7492.216,6.724987
7494.145,6.727297
7496.073,6.731791
7498.002,6.724761
7499.931,6.719599
7501.859,6.724937
7503.787,6.721418
7505.716,6.720252
7507.645,6.715978
7509.573,6.715248
7511.501,6.717943
7513.43,6.723891
7515.358,6.722709
7517.287,6.720137
7519.215,6.716514
7521.144,6.715052
7523.072,6.713985
7525.001,6.712879
7526.93,6.703333
7528.858,6.700525
7530.786,6.710806
7532.715,6.711906
7534.644,6.701489
7536.572,6.700507
7538.5,6.701414
7540.429,6.698807
7542.357,6.696557
7544.286,6.693261
7546.214,6.682694
7548.143,6.677157
7550.071,6.682388
7552.0,6.68158
7553.928,6.68126
7555.857,6.682363
7557.785,6.67456
7559.714,6.669123
7561.643,6.672112
7563.571,6.669802
7565.499,6.66469
7567.428,6.660905
7569.356,6.656401
7571.285,6.651063
7573.213,6.649567
7575.142,6.650935
7577.07,6.645051
7578.999,6.647142
7580.927,6.64204
7582.855,6.632704
7584.784,6.626799
7586.713,6.631367
7588.642,6.630324
7590.57,6.62701
7592.498,6.627003
7594.427,6.621782
7596.355,6.611537
7598.284,6.599167
7600.212,6.600569
7602.141,6.604621
7604.069,6.595539
7605.998,6.592889
7607.926,6.59002
7609.854,6.581567
7611.783,6.580458
7613.712,6.572687
7615.641,6.570848
7617.569,6.569697
7619.497,6.562801
7621.426,6.556997
7623.354,6.554029
7625.283,6.548492
7627.211,6.536309
7629.14,6.529256
7631.068,6.52514
7632.997,6.520773
7634.925,6.518315
7636.854,6.515218
7638.782,6.502239
7640.711,6.491278
7642.639,6.481865
7644.568,6.479117
7646.496,6.484292
7648.425,6.474809
7650.354,6.470175
7652.282,6.467283
7654.21,6.461212
7656.139,6.454802
7658.067,6.455012
7659.996,6.449166
7661.924,6.439653
7663.853,6.437505
7665.781,6.43488
7667.71,6.430463
7669.638,6.4229
7671.566,6.412689
7673.495,6.411957
7675.424,6.406072
7677.353,6.397559
7679.281,6.399181
7681.209,6.400664
7683.138,6.398161
7685.066,6.393298
7686.995,6.388636
7688.923,6.38778
7690.852,6.383471
7692.78,6.3818
7694.709,6.376192
7696.637,6.373562
7698.565,6.369712
7700.494,6.365479
7702.423,6.356354
7704.352,6.350579
7706.28,6.353328
7708.208,6.346255
7710.137,6.343108
7712.065,6.339225
7713.994,6.337587
7715.922,6.333917
7717.851,6.331188
7719.779,6.330472
7721.708,6.328513
7723.636,6.324831
7725.564,6.316891
7727.493,6.303247
7729.422,6.29952
7731.35,6.296739
7733.279,6.295061
7735.207,6.29634
7737.136,6.298338
7739.064,6.292369
7740.993,6.285306
7742.921,6.282227
7744.85,6.279159
7746.778,6.275527
7748.707,6.276484
7750.635,6.270932
7752.563,6.261294
7754.492,6.256736
7756.421,6.255492
7758.349,6.251527
7760.277,6.243899
7762.206,6.237023
7764.135,6.236745
7766.063,6.230105
7767.992,6.220251
7769.92,6.216834
7771.849,6.213336
7773.777,6.209483
7775.706,6.201993
7777.634,6.200457
7779.563,6.199922
7781.491,6.197481
7783.42,6.197145
7785.348,6.187971
7787.276,6.18185
7789.205,6.185187
7791.134,6.182362
7793.063,6.178653
7794.991,6.177609
7796.919,6.170448
7798.848,6.164609
7800.776,6.166859
7802.705,6.160751
7804.633,6.145473
7806.562,6.143283
7808.49,6.147535
7810.419,6.14307
7812.347,6.133767
7814.275,6.12641
7816.204,6.122763
7818.133,6.119252
7820.061,6.111293
7821.989,6.108787
7823.918,6.112127
7825.847,6.105883
7827.775,6.090881
7829.704,6.083685
7831.632,6.07967
7833.561,6.081073
7835.489,6.072122
7837.417,6.069767
7839.346,6.060354
7841.274,6.055875
7843.203,6.05047
7845.132,6.043567
7847.06,6.040477
7848.988,6.032611
7850.917,6.024537
7852.846,6.01396
7854.774,6.007034
7856.703,5.994466
7858.631,5.984142
7860.56,5.981756
7862.488,5.978247
7864.417,5.961591
7866.345,5.95543
7868.273,5.953008
7870.202,5.950533
7872.131,5.936821
7874.059,5.918617
7875.987,5.908754
7877.916,5.906208
7879.845,5.894763
7881.773,5.882644
7883.702,5.872286
7885.63,5.873233
7887.559,5.861697
7889.487,5.855636
7891.416,5.850169
7893.344,5.839844
7895.272,5.823408
7897.201,5.81896
7899.13,5.834427
7901.058,5.808252
7902.986,5.785638
7904.915,5.769051
7906.844,5.756927
7908.772,5.753922
7910.7,5.742292
7912.629,5.733806
7914.558,5.719062
7916.486,5.707426
7918.415,5.695117
7920.343,5.681739
7922.271,5.673269
7924.2,5.669447
7926.128,5.656422
7928.057,5.633079
7929.985,5.626484
7931.914,5.615006
7933.843,5.598001
7935.771,5.586566
7937.699,5.570794
7939.628,5.561383
7941.557,5.555146
7943.485,5.540158
7945.414,5.522261
7947.342,5.507029
7949.271,5.499033
7951.199,5.483399
7953.127,5.467811
7955.056,5.462848
7956.984,5.445803
7958.913,5.426125
7960.842,5.406283
7962.77,5.387673
7964.698,5.379257
7966.627,5.374319
7968.556,5.3606
7970.484,5.334988
7972.413,5.316918
7974.341,5.304104
7976.27,5.287779
7978.198,5.27003
7980.126,5.256071
7982.055,5.236894
7983.983,5.218719
7985.912,5.202518
7987.841,5.188046
7989.769,5.166765
7991.697,5.153014
7993.626,5.143918
7995.555,5.127818
7997.483,5.113226
7999.411,5.087987
8001.34,5.058458
8003.269,5.04619
8005.197,5.034269
8007.125,5.019356
8009.054,4.995193
8010.982,4.972888
8012.911,4.959321
8014.839,4.943941
8016.768,4.920141
8018.696,4.897482
8020.625,4.873796
8022.554,4.854573
8024.482,4.839973
8026.41,4.822262
8028.339,4.797685
8030.268,4.777468
8032.196,4.754997
8034.125,4.739542
8036.053,4.718199
8037.981,4.695129
8039.91,4.67407
8041.838,4.65249
8043.767,4.634492
8045.695,4.606813
8047.624,4.571764
8049.553,4.551421
8051.481,4.543416
8053.409,4.518042
8055.338,4.491544
8057.267,4.473281
8059.195,4.447765
8061.124,4.420557
8063.052,4.39275
8064.98,4.361744
8066.909,4.345327
8068.837,4.3302
8070.766,4.304727
8072.694,4.278385
8074.623,4.25551
8076.552,4.233936
8078.48,4.212615
8080.408,4.182178
8082.337,4.160616
8084.266,4.134987
8086.194,4.100956
8088.122,4.076478
8090.051,4.054743
8091.979,4.029828
8093.908,4.011197
8095.836,3.98727
8097.765,3.949553
8099.693,3.920372
8101.622,3.902038
8103.551,3.876105
8105.479,3.846078
8107.407,3.81829
8109.336,3.789896
8111.265,3.760625
8113.192,3.739002
8115.121,3.709458
8117.05,3.676506
8118.979,3.649856
8120.907,3.627482
8122.835,3.608911
8124.764,3.577428
8126.692,3.542725
8128.621,3.513193
8130.55,3.477457
8132.478,3.449118
8134.406,3.421252
8136.335,3.395637
8138.264,3.359505
8140.191,3.332014
8142.12,3.307053
8144.049,3.287149
8145.978,3.26099
8147.906,3.223057
8149.834,3.188187
8151.763,3.166584
8153.691,3.141928
8155.62,3.113913
8157.548,3.093566
8159.477,3.067737
8161.405,3.03106
8163.334,2.997836
8165.263,2.974736
8167.19,2.947197
8169.119,2.924424
8171.048,2.910414
8172.977,2.888849
8174.905,2.858805
8176.833,2.824629
8178.762,2.801735
8180.69,2.789201
8182.619,2.773222
8184.547,2.75229
8186.476,2.732217
8188.404,2.714157
8190.333,2.706685
8192.262,2.68909
8194.189,2.659011
8196.118,2.652985
8198.047,2.638097
8199.976,2.626618
8201.903,2.617051
8203.832,2.605278
8205.761,2.591842
8207.689,2.587039
8209.618,2.584663
8211.546,2.577368
8213.475,2.567197
8215.403,2.566578
8217.332,2.561603
8219.261,2.556284
8221.188,2.558389
8223.117,2.554071
8225.046,2.554163
8226.975,2.55405
8228.902,2.548579
8230.831,2.554684
8232.76,2.559615
8234.688,2.553586
8236.617,2.556827
8238.545,2.564914
8240.474,2.569838
8242.402,2.560762
8244.331,2.557138
8246.259,2.562074
8248.188,2.57168
8250.116,2.577765
8252.045,2.574805
8253.974,2.5753
8255.901,2.590729
8257.83,2.590888
8259.759,2.593641
8261.688,2.601503
8263.616,2.60772
8265.544,2.613753
8267.473,2.623681
8269.401,2.632647
8271.33,2.642697
8273.258,2.642612
8275.187,2.657753
8277.115,2.674843
8279.044,2.686029
8280.973,2.691147
8282.9,2.703743
8284.829,2.71653
8286.758,2.727933
8288.687,2.743227
8290.614,2.757593
8292.543,2.772872
8294.472,2.788864
8296.4,2.807168
8298.329,2.825681
8300.257,2.835513
8302.186,2.850994
8304.114,2.870216
8306.043,2.889048
8307.972,2.902513
8309.899,2.918136
8311.828,2.93894
8313.757,2.95055
8315.686,2.965728
8317.613,2.982723
8319.542,2.990374
8321.471,3.003784
8323.399,3.037213
8325.328,3.061913
8327.256,3.077295
8329.185,3.091865
8331.113,3.109612
8333.042,3.129862
8334.97,3.143147
8336.898,3.155499
8338.827,3.173829
8340.756,3.194162
8342.685,3.21414
8344.612,3.240154
8346.541,3.260459
8348.47,3.286654
8350.398,3.310047
8352.327,3.327936
8354.255,3.349282
8356.184,3.366818
8358.112,3.386824
8360.041,3.410959
8361.969,3.432743
8363.897,3.45475
8365.826,3.478973
8367.755,3.496688
8369.684,3.517552
8371.611,3.530801
8373.54,3.54999
8375.469,3.567111
8377.397,3.581109
8379.325,3.605694
8381.254,3.634658
8383.183,3.660925
8385.111,3.680145
8387.04,3.685127
8388.968,3.696375
8390.896,3.71562
8392.825,3.732071
8394.754,3.745775
8396.683,3.753141
8398.61,3.759192
8400.539,3.763637
8402.468,3.77677
8404.396,3.776861
8406.324,3.783391
8408.253,3.786084
8410.182,3.78652
8412.11,3.795024
8414.039,3.796132
8415.967,3.801427
8417.896,3.813245
8419.824,3.816347
8421.753,3.823115
8423.681,3.828097
8425.609,3.833773
8427.538,3.845415
8429.467,3.859894
8431.396,3.879266
8433.323,3.893113
8435.252,3.906103
8437.181,3.934428
8439.109,3.961003
8441.037,3.99289
8442.966,4.028674
8444.895,4.055702
8446.823,4.079336
8448.752,4.104866
8450.68,4.140562
8452.608,4.170657
8454.537,4.188807
8456.466,4.218436
8458.395,4.253564
8460.322,4.276215
8462.251,4.290142
8464.18,4.310464
8466.108,4.339167
8468.036,4.36423
8469.965,4.375721
8471.894,4.395541
8473.822,4.411549
8475.751,4.433914
8477.679,4.469413
8479.607,4.492489
8481.536,4.515563
8483.465,4.538276
8485.393,4.564345
8487.321,4.592723
8489.25,4.620691
8491.179,4.64061
8493.107,4.660886
8495.035,4.680754
8496.964,4.69874
8498.893,4.711231
8500.821,4.70934
8502.75,4.719039
8504.678,4.749695
8506.606,4.761093
8508.535,4.762115
8510.464,4.776848
8512.392,4.789764
8514.32,4.803883
8516.249,4.817095
8518.178,4.825626
8520.106,4.830489
8522.034,4.843694
8523.963,4.868681
8525.892,4.868078
8527.82,4.868506
8529.748,4.878611
8531.677,4.87755
8533.605,4.879257
8535.534,4.886744
8537.463,4.89737
8539.391,4.883817
8541.319,4.871505
8543.248,4.862112
8545.177,4.843183
8547.105,4.824743
8549.033,4.81388
8550.962,4.797099
8552.891,4.764285
8554.819,4.743398
8556.747,4.727015
8558.676,4.708327
8560.604,4.704602
8562.533,4.6875
8564.462,4.672909
8566.39,4.684802
8568.318,4.708248
8570.247,4.733216
8572.176,4.759257
8574.104,4.787092
8576.032,4.815739
8577.961,4.839852
8579.89,4.876926
8581.818,4.92213
8583.746,4.95497
8585.675,4.974257
8587.604,5.009894
8589.532,5.048014
8591.461,5.101172
8593.389,5.157034
8595.317,5.193576
8597.246,5.223215
8599.175,5.25529
8601.103,5.29743
8603.031,5.340429
8604.96,5.374356
8606.889,5.417771
8608.817,5.463803
8610.745,5.50039
8612.674,5.535025
8614.603,5.571434
8616.531,5.609813
8618.459,5.651431
8620.388,5.690925
8622.316,5.72403
8624.245,5.746052
8626.174,5.782729
8628.102,5.813993
8630.03,5.833549
8631.959,5.868756
8633.888,5.906897
8635.816,5.942317
8637.744,5.971921
8639.673,5.988182
8641.602,6.011452
8643.53,6.031543
8645.458,6.057648
8647.387,6.088987
8649.315,6.107317
8651.244,6.118883
8653.173,6.147308
8655.101,6.16117
8657.029,6.181891
8658.958,6.205437
8660.887,6.223026
8662.814,6.236299
8664.743,6.248773
8666.672,6.261415
8668.601,6.27561
8670.529,6.292295
8672.457,6.302348
8674.386,6.317377
8676.314,6.342187
8678.243,6.355707
8680.172,6.35765
8682.1,6.374829
8684.028,6.399446
8685.957,6.413028
8687.886,6.434416
8689.813,6.456285
8691.742,6.464908
8693.671,6.478237
8695.6,6.506597
8697.528,6.524399
8699.456,6.541948
8701.385,6.556261
8703.313,6.572636
8705.242,6.597212
8707.17,6.63132
8709.099,6.648545
8711.027,6.666757
8712.956,6.690265
8714.885,6.711092
8716.813,6.727095
8718.741,6.749605
8720.67,6.768446
8722.599,6.788469
8724.527,6.805484
8726.455,6.822986
8728.384,6.841494
8730.313,6.867411
8732.241,6.896709
8734.169,6.925489
8736.098,6.931795
8738.026,6.936068
8739.955,6.956269
8741.884,6.984944
8743.812,7.006244
8745.74,7.022744
8747.669,7.030504
8749.598,7.047819
8751.525,7.072227
8753.454,7.089117
8755.383,7.119081
8757.312,7.138369
8759.24,7.138263
8761.168,7.143435
8763.097,7.15638
8765.025,7.172374
8766.954,7.18319
8768.882,7.192071
8770.811,7.205208
8772.739,7.214251
8774.668,7.223652
8776.597,7.23823
8778.524,7.248623
8780.453,7.276391
8782.382,7.287658
8784.311,7.290764
8786.239,7.295862
8788.167,7.302435
8790.096,7.318344
8792.024,7.331032
8793.953,7.329283
8795.881,7.329233
8797.81,7.343994
8799.738,7.36614
8801.667,7.370149
8803.596,7.379
8805.523,7.392454
8807.452,7.389872
8809.381,7.393638
8811.31,7.402942
8813.237,7.40791
8815.166,7.414921
8817.095,7.42878
8819.023,7.423695
8820.952,7.426858
8822.88,7.439562
8824.809,7.441481
8826.737,7.441079
8828.666,7.439519
8830.595,7.450496
8832.522,7.461781
8834.451,7.462899
8836.38,7.461936
8838.309,7.471447
8840.236,7.478295
8842.165,7.476476
8844.094,7.469153
8846.022,7.473074
8847.951,7.475271
8849.879,7.465029
8851.808,7.471626
8853.736,7.478916
8855.665,7.484965
8857.593,7.483942
8859.521,7.488256
8861.45,7.496104
8863.379,7.50445
8865.308,7.515276
8867.235,7.510039
8869.164,7.505057
8871.093,7.513771
8873.021,7.514594
8874.95,7.505303
8876.878,7.507492
8878.807,7.513637
8880.735,7.50596
8882.664,7.502928
8884.592,7.505376
8886.521,7.50628
8888.449,7.511506
8890.378,7.52212
8892.307,7.522472
8894.234,7.511698
8896.163,7.515629
8898.092,7.523799
8900.021,7.529128
8901.948,7.527704
8903.877,7.52745
8905.806,7.51721
8907.734,7.515266
8909.663,7.51204
8911.591,7.514647
8913.52,7.525942
8915.448,7.525975
8917.377,7.517173
8919.306,7.500615
8921.233,7.513615
8923.162,7.524619
8925.091,7.52633
8927.02,7.520363
8928.947,7.523505
8930.876,7.517108
8932.805,7.509013
8934.733,7.510671
8936.662,7.517874
8938.59,7.512664
8940.519,7.499079
8942.447,7.488388
8944.376,7.492898
8946.304,7.505115
8948.232,7.518508
8950.161,7.522991
8952.09,7.523577
8954.019,7.515784
8955.946,7.509477
8957.875,7.499679
8959.804,7.499397
8961.732,7.504055
8963.661,7.516783
8965.589,7.519276
8967.518,7.515476
8969.446,7.51845
8971.375,7.509241
8973.303,7.509719
8975.231,7.514132
8977.16,7.521635
8979.089,7.518759
8981.018,7.526456
8982.945,7.525743
8984.874,7.52164
8986.803,7.519256
8988.731,7.527684
8990.659,7.524703
8992.588,7.527907
8994.517,7.52862
8996.445,7.533488
8998.374,7.528788
9000.302,7.526878
9002.23,7.532708
9004.159,7.529975
9006.088,7.522334
9008.017,7.528753
9009.944,7.542155
9011.873,7.547535
9013.802,7.539692
9015.73,7.54535
9017.658,7.549935
9019.587,7.543707
9021.516,7.562491
9023.444,7.570117
9025.373,7.558985
9027.301,7.552575
9029.229,7.557954
9031.158,7.554494
9033.087,7.570995
9035.015,7.571205
9036.943,7.564405
9038.872,7.55237
9040.801,7.555338
9042.729,7.557388
9044.657,7.559723
9046.586,7.566059
9048.515,7.577593
9050.443,7.575504
9052.372,7.571463
9054.3,7.575159
9056.229,7.570807
9058.157,7.579445
9060.086,7.585218
9062.014,7.588953
9063.942,7.587924
9065.871,7.579469
9067.8,7.57176
9069.729,7.574728
9071.656,7.577561
9073.585,7.576586
9075.514,7.56784
9077.442,7.569272
9079.37,7.583393
9081.299,7.598053
9083.228,7.592744
9085.156,7.587662
9087.085,7.576641
9089.013,7.588033
9090.941,7.585177
9092.87,7.570939
9094.799,7.583074
9096.727,7.592681
9098.655,7.589332
9100.584,7.604538
9102.513,7.600985
9104.441,7.607466
9106.369,7.607327
9108.298,7.586741
9110.227,7.579958
9112.155,7.585926
9114.084,7.571623
9116.012,7.567721
9117.94,7.573801
9119.869,7.578146
9121.798,7.571756
9123.726,7.567783
9125.654,7.573527
9127.583,7.58529
9129.512,7.584581
9131.44,7.587788
9133.368,7.587597
9135.297,7.586226
9137.226,7.588457
9139.154,7.588428
9141.082,7.574231
9143.011,7.567269
9144.939,7.56977
9146.868,7.568231
9148.797,7.579842
9150.725,7.583832
9152.653,7.576509
9154.582,7.572576
9156.511,7.581486
9158.439,7.59026
9160.367,7.578259
9162.296,7.571889
9164.225,7.567425
9166.153,7.567888
9168.081,7.574961
9170.01,7.564013
9171.938,7.552811
9173.867,7.567751
9175.796,7.575391
9177.724,7.566562
9179.652,7.554682
9181.581,7.546805
9183.51,7.542834
9185.438,7.546143
9187.366,7.550761
9189.295,7.550287
9191.224,7.55591
9193.152,7.553543
9195.08,7.533597
9197.009,7.528291
9198.938,7.543583
9200.866,7.552
9202.795,7.549416
9204.723,7.539845
9206.651,7.528134
9208.58,7.523052
9210.509,7.530175
9212.437,7.531657
9214.365,7.524566
9216.294,7.525207
9218.223,7.51249
9220.151,7.507638
9222.079,7.510851
9224.008,7.515323
9225.937,7.523065
9227.865,7.515282
9229.793,7.517032
9231.722,7.515739
9233.65,7.515167
9235.579,7.502659
9237.508,7.498117
9239.436,7.503653
9241.364,7.511649
9243.293,7.511077
9245.222,7.5099
9247.15,7.515047
9249.078,7.516965
9251.007,7.511056
9252.936,7.510787
9254.864,7.507773
9256.792,7.498735
9258.721,7.482813
9260.649,7.475546
9262.578,7.500343
9264.507,7.513371
9266.435,7.508854
9268.363,7.494423
9270.292,7.492475
9272.221,7.493011
9274.148,7.481611
9276.077,7.477675
9278.006,7.482804
9279.935,7.480579
9281.863,7.488388
9283.791,7.480866
9285.72,7.472349
9287.648,7.463305
9289.577,7.46825
9291.506,7.480159
9293.434,7.481762
9295.362,7.467243
9297.291,7.472667
9299.22,7.475429
9301.147,7.477742
9303.076,7.48035
9305.005,7.47558
9306.934,7.473737
9308.862,7.477615
9310.79,7.479077
9312.719,7.475729
9314.647,7.471385
9316.576,7.475457
9318.504,7.483913
9320.433,7.476004
9322.361,7.47842
9324.29,7.476019
9326.219,7.489962
9328.146,7.481626
9330.075,7.476821
9332.004,7.462961
9333.933,7.455201
9335.861,7.44254
9337.789,7.460187
9339.718,7.480518
9341.646,7.47199
9343.575,7.475941
9345.503,7.483562
9347.432,7.48831
9349.36,7.473752
9351.289,7.480901
9353.218,7.468487
9355.146,7.454169
9357.074,7.450348
9359.003,7.454449
9360.932,7.46067
9362.859,7.452516
9364.788,7.444315
9366.717,7.444038
9368.646,7.451987
9370.574,7.447423
9372.502,7.434313
9374.431,7.429298
9376.359,7.416495
9378.288,7.424219
9380.217,7.432121
9382.145,7.44763
9384.073,7.445285
9386.002,7.435189
9387.931,7.404541
9389.858,7.406431
9391.787,7.411332
9393.716,7.403584
9395.645,7.404505
9397.573,7.417868
9399.501,7.406624
9401.43,7.400868
9403.358,7.400815
9405.287,7.394854
9407.215,7.389108
9409.144,7.381629
9411.072,7.391359
9413.001,7.402499
9414.93,7.398988
9416.857,7.382533
9418.786,7.368081
9420.715,7.371739
9422.644,7.373398
9424.571,7.362264
9426.5,7.358166
9428.429,7.354177
9430.357,7.357674
9432.286,7.364741
9434.214,7.358541
9436.143,7.360808
9438.071,7.3511
9440.0,7.33663
9441.929,7.323346
9443.856,7.320743
9445.785,7.300608
9447.714,7.292865
9449.643,7.311822
9451.57,7.309193
9453.499,7.310318
9455.428,7.315082
9457.356,7.302388
9459.285,7.293406
9461.213,7.285526
9463.142,7.285161
9465.07,7.27478
9466.999,7.273985
9468.927,7.272319
9470.855,7.267805
9472.784,7.256397
9474.713,7.258496
9476.642,7.250642
9478.569,7.252217
9480.498,7.273205
9482.427,7.284649
9484.355,7.268906
9486.284,7.248755
9488.212,7.247908
9490.141,7.252105
9492.069,7.241054
9493.998,7.23992
9495.926,7.24705
9497.854,7.244663
9499.783,7.243963
9501.712,7.227582
9503.641,7.231556
9505.568,7.248105
9507.497,7.254141
9509.426,7.248278
9511.354,7.23849
9513.282,7.23314
9515.211,7.237155
9517.14,7.243832
9519.068,7.228268
9520.997,7.211008
9522.925,7.21523
9524.854,7.2305
9526.782,7.223871
9528.711,7.201325
9530.64,7.204284
9532.567,7.216369
9534.496,7.205576
9536.425,7.187315
9538.354,7.198991
9540.281,7.191953
9542.21,7.185654
9544.139,7.18823
9546.067,7.182669
9547.996,7.185487
9549.924,7.18367
9551.853,7.171979
9553.781,7.162893
9555.71,7.144312
9557.638,7.149419
9559.566,7.149593
9561.495,7.157514
9563.424,7.166359
9565.353,7.147192
9567.28,7.135111
9569.209,7.133187
9571.138,7.134619
9573.066,7.145086
9574.995,7.147194
9576.923,7.132511
9578.852,7.117899
9580.78,7.12358
9582.709,7.11434
9584.637,7.125548
9586.565,7.140317
9588.494,7.128167
9590.423,7.116898
9592.352,7.135131
9594.279,7.128842
9596.208,7.11178
9598.137,7.109612
9600.065,7.134758
9601.993,7.136864
9603.922,7.133977
9605.851,7.131782
9607.779,7.129224
9609.708,7.142532
9611.636,7.140221
9613.564,7.127452
9615.493,7.144647
9617.422,7.166359
9619.351,7.156412
9621.278,7.15354
9623.207,7.147315
9625.136,7.162271
9627.064,7.165695
9628.992,7.15052
9630.921,7.151436
9632.85,7.172821
9634.778,7.204457
9636.707,7.213047
9638.635,7.188789
9640.563,7.189006
9642.492,7.211957
9644.421,7.24198
9646.349,7.257837
9648.277,7.232258
9650.206,7.214789
9652.135,7.209536
9654.063,7.221543
9655.991,7.262153
9657.92,7.274924
9659.849,7.263031
9661.777,7.265978
9663.706,7.257455
9665.634,7.259642
9667.563,7.284545
9669.491,7.30071
9671.42,7.300513
9673.348,7.300664
9675.276,7.32021
9677.205,7.313598
9679.134,7.306619
9681.063,7.316527
9682.99,7.331539
9684.919,7.339798
9686.848,7.349644
9688.776,7.351025
9690.704,7.355939
9692.633,7.342625
9694.562,7.359123
9696.49,7.371469
9698.419,7.367533
9700.347,7.390027
9702.275,7.400367
9704.204,7.387376
9706.133,7.390285
9708.062,7.398158
9709.989,7.405496
9711.918,7.41073
9713.847,7.41541
9715.775,7.446126
9717.703,7.463003
9719.632,7.450521
9721.561,7.450299
9723.489,7.458439
9725.418,7.454559
9727.346,7.442515
9729.274,7.471474
9731.203,7.499997
9733.132,7.499074
9735.06,7.485726
9736.988,7.48879
9738.917,7.498622
9740.846,7.500907
9742.774,7.505036
9744.702,7.510519
9746.631,7.50996
9748.56,7.528292
9750.488,7.560163
9752.416,7.572914
9754.345,7.561841
9756.273,7.562228
9758.202,7.561997
9760.131,7.564841
9762.059,7.576642
9763.987,7.559525
9765.916,7.534274
9767.845,7.530002
9769.773,7.536881
9771.701,7.537846
9773.63,7.553144
9775.559,7.564501
9777.487,7.56678
9779.415,7.55631
9781.344,7.588645
9783.272,7.600621
9785.201,7.553493
9787.13,7.568444
9789.058,7.589501
9790.986,7.574806
9792.915,7.581486
9794.844,7.58682
9796.771,7.588009
9798.7,7.574786
9800.629,7.574219
9802.558,7.579594
9804.486,7.595001
9806.414,7.598644
9808.343,7.562948
9810.271,7.56986
9812.2,7.571426
9814.129,7.547197
9816.057,7.563572
9817.985,7.567219
9819.914,7.570411
9821.843,7.591216
9823.771,7.577789
9825.699,7.561882
9827.628,7.560668
9829.557,7.576994
9831.485,7.583156
9833.413,7.587955
9835.342,7.607807
9837.271,7.608945
9839.199,7.579164
9841.127,7.562278
9843.056,7.596519
9844.984,7.62771
9846.913,7.625499
9848.842,7.614689
9850.77,7.641366
9852.698,7.642352
9854.627,7.619971
9856.556,7.636424
9858.484,7.64214
9860.412,7.657701
9862.341,7.67013
9864.27,7.683953
9866.198,7.673339
9868.126,7.651314
9870.055,7.675889
9871.983,7.697218
9873.912,7.679551
9875.841,7.70636
9877.769,7.73732
9879.697,7.715832
9881.626,7.716221
9883.555,7.732777
9885.482,7.73799
9887.411,7.752964
9889.34,7.753115
9891.269,7.767084
9893.197,7.773416
9895.125,7.764843
9897.054,7.780748
9898.982,7.786582
9900.911,7.786254
9902.84,7.791735
9904.768,7.789726
9906.696,7.802171
9908.625,7.802988
9910.554,7.805505
9912.481,7.803774
9914.41,7.813431
9916.339,7.840227
9918.268,7.835995
9920.196,7.822356
9922.124,7.833661
9924.053,7.855728
9925.981,7.868902
9927.91,7.882176
9929.838,7.852308
9931.767,7.852659
9933.695,7.875936
9935.624,7.871367
9937.553,7.872571
9939.48,7.88924
9941.409,7.898448
9943.338,7.901197
9945.267,7.921142
9947.195,7.91336
9949.123,7.900022
9951.052,7.895335
9952.98,7.886157
9954.909,7.903213
9956.837,7.94267
9958.766,7.93641
9960.694,7.913306
9962.623,7.938333
9964.552,7.959957
9966.479,7.986552
9968.408,7.993283
9970.337,8.005275
9972.266,8.001028
9974.193,7.974731
9976.122,7.959822
9978.051,7.953502
9979.979,7.974953
9981.908,7.973911
9983.836,7.97643
9985.765,7.985889
9987.693,8.007771
9989.622,7.992581
9991.551,7.995349
9993.479,7.998178
9995.407,7.989488
9997.336,8.013955
9999.265,8.00697
10001.19,7.966927
10003.12,7.976899
10005.05,8.011515
10006.98,8.012961
10008.91,8.021586
10010.83,8.050395
10012.76,8.048583
10014.69,8.043716
10016.62,8.027586
10018.55,8.030007
10020.48,8.025845
10022.41,8.012504
10024.33,8.024123
10026.26,8.031983
10028.19,8.022367
10030.12,8.038049
10032.05,8.051235
10033.98,8.061827
10035.91,8.068575
10037.83,8.054811
10039.76,8.038519
10041.69,8.05781
10043.62,8.087166
10045.55,8.080285
10047.48,8.054498
10049.41,8.074059
10051.33,8.077357
10053.26,8.079636
10055.19,8.085021
10057.12,8.088344
10059.05,8.090724
10060.98,8.104716
10062.9,8.102701
10064.83,8.078806
10066.76,8.081074
10068.69,8.091413
10070.62,8.101249
10072.55,8.101496
10074.48,8.116853
10076.4,8.126738
10078.33,8.114471
10080.26,8.119678
10082.19,8.127082
10084.12,8.12985
10086.05,8.151162
10087.98,8.167905
10089.9,8.157865
10091.83,8.131819
10093.76,8.110073
10095.69,8.127813
10097.62,8.138806
10099.55,8.136853
10101.47,8.129799
10103.4,8.118171
10105.33,8.099158
10107.26,8.119465
10109.19,8.166839
10111.12,8.160089
10113.05,8.142972
10114.97,8.125569
10116.9,8.152289
10118.83,8.138021
10120.76,8.12358
10122.69,8.158552
10124.62,8.168151
10126.54,8.186858
10128.47,8.184593
10130.4,8.186253
10132.33,8.17142
10134.26,8.157001
10136.19,8.160078
10138.12,8.211482
10140.04,8.193686
10141.97,8.181266
10143.9,8.192348
10145.83,8.186403
10147.76,8.163815
10149.69,8.138218
10151.62,8.147195
10153.54,8.158587
10155.47,8.169027
10157.4,8.190964
10159.33,8.188701
10161.26,8.154583
10163.19,8.168874
10165.12,8.202753
10167.04,8.187189
10168.97,8.17299
10170.9,8.178355
10172.83,8.200992
10174.76,8.219069
10176.69,8.19197
10178.61,8.150092
10180.54,8.133444
10182.47,8.179575
10184.4,8.19384
10186.33,8.212608
10188.26,8.216284
10190.19,8.196482
10192.11,8.170729
10194.04,8.19336
10195.97,8.229427
10197.9,8.202973
10199.83,8.169474
10201.76,8.179564
10203.69,8.176819
10205.61,8.186563
10207.54,8.199822
10209.47,8.189462
10211.4,8.215782
10213.33,8.215929
10215.26,8.217022
10217.18,8.218655
10219.11,8.208193
10221.04,8.226315
10222.97,8.20656
10224.9,8.206279
10226.83,8.218831
10228.76,8.23172
10230.68,8.200147
10232.61,8.166119
10234.54,8.178028
10236.47,8.200163
10238.4,8.1818
10240.33,8.178761
10242.25,8.209463
10244.18,8.205617
10246.11,8.180595
10248.04,8.197319
10249.97,8.214532
10251.9,8.214268
10253.83,8.204101
10255.75,8.18796
10257.68,8.174051
10259.61,8.193368
10261.54,8.211985
10263.47,8.228179
10265.4,8.213667
10267.33,8.190452
10269.25,8.227287
10271.18,8.222291
10273.11,8.173774
10275.04,8.171227
10276.97,8.194826
10278.9,8.200773
10280.83,8.18674
10282.75,8.165555
10284.68,8.171972
10286.61,8.186271
10288.54,8.175193
10290.47,8.172845
10292.4,8.176872
10294.32,8.184546
10296.25,8.193045
10298.18,8.195887
10300.11,8.194189
10302.04,8.185289
10303.97,8.191013
10305.9,8.192197
10307.82,8.18485
10309.75,8.166793
10311.68,8.166727
10313.61,8.163674
10315.54,8.158123
10317.47,8.160397
10319.4,8.164325
10321.32,8.184397
10323.25,8.189236
10325.18,8.180809
10327.11,8.145287
10329.04,8.15018
10330.97,8.162051
10332.89,8.167524
10334.82,8.158163
10336.75,8.1659
10338.68,8.17515
10340.61,8.1685
10342.54,8.146105
10344.47,8.13695
10346.39,8.149193
10348.32,8.18385
10350.25,8.176544
10352.18,8.144053
10354.11,8.12904
10356.04,8.156744
10357.96,8.171606
10359.89,8.175051
10361.82,8.155242
10363.75,8.15934
10365.68,8.16014
10367.61,8.177534
10369.54,8.173262
10371.46,8.159968
10373.39,8.155311
10375.32,8.151311
10377.25,8.163013
10379.18,8.159616
10381.11,8.13583
10383.04,8.152587
10384.96,8.158357
10386.89,8.156794
10388.82,8.148325
10390.75,8.135607
10392.68,8.114741
10394.61,8.139809
10396.54,8.170355
10398.46,8.14734
10400.39,8.125602
10402.32,8.145052
10404.25,8.156301
10406.18,8.163716
10408.11,8.149507
10410.03,8.135378
10411.96,8.085474
10413.89,8.106549
10415.82,8.118489
10417.75,8.12589
10419.68,8.151674
10421.61,8.155517
10423.53,8.145437
10425.46,8.149585
10427.39,8.130882
10429.32,8.104288
10431.25,8.119221
10433.18,8.111402
10435.1,8.103939
10437.03,8.117875
10438.96,8.093654
10440.89,8.076586
10442.82,8.097221
10444.75,8.119221
10446.68,8.101359
10448.6,8.076232
10450.53,8.05754
10452.46,8.064935
10454.39,8.100834
10456.32,8.091534
10458.25,8.09211
10460.18,8.13686
10462.1,8.102829
10464.03,8.099565
10465.96,8.096354
10467.89,8.05937
10469.82,8.005171
10471.75,8.030715
10473.67,8.061378
10475.6,8.065412
10477.53,8.070078
10479.46,8.074963
10481.39,8.050607
10483.32,8.051284
10485.25,8.064244
10487.17,8.054388
10489.1,8.037992
10491.03,8.040115
10492.96,8.050011
10494.89,8.032394
10496.82,8.008228
10498.75,8.005217
10500.67,7.981984
10502.6,7.989753
10504.53,7.999722
10506.46,8.015852
10508.39,7.977302
10510.32,7.989383
10512.25,7.963449
10514.17,7.97736
10516.1,7.991829
10518.03,7.960991
10519.96,7.94552
10521.89,7.94688
10523.82,7.963032
10525.74,7.932295
10527.67,7.917345
10529.6,7.910259
10531.53,7.923778
10533.46,7.928155
10535.39,7.89912
10537.32,7.907984
10539.24,7.900851
10541.17,7.863834
10543.1,7.877015
10545.03,7.870878
10546.96,7.838797
10548.89,7.863326
10550.81,7.842875
10552.74,7.805348
10554.67,7.785633
10556.6,7.768166
10558.53,7.775284
10560.46,7.766757
10562.39,7.776591
10564.31,7.785653
10566.24,7.761971
10568.17,7.707776
10570.1,7.696981
10572.03,7.696476
10573.96,7.655306
10575.89,7.690526
10577.81,7.605647
10579.74,7.570786
10581.67,7.639629
10583.6,7.680997
10585.53,7.642123
10587.46,7.604457
10589.38,7.573059
10591.31,7.54625
10593.24,7.560374
10595.17,7.566425
10597.1,7.509376
10599.03,7.459914
10600.96,7.477654
10602.88,7.496273
10604.81,7.485856
10606.74,7.477698
10608.67,7.473744
10610.6,7.419165
10612.53,7.349698
10614.46,7.345136
10616.38,7.360832
10618.31,7.343369
10620.24,7.263246
10622.17,7.251173
10624.1,7.262157
10626.03,7.260362
10627.96,7.244386
10629.88,7.199749
10631.81,7.204321
10633.74,7.182283
10635.67,7.130435
10637.6,7.120391
10639.53,7.113883
10641.45,7.110998
10643.38,7.099076
10645.31,7.05484
10647.24,7.016636
10649.17,6.976138
10651.1,6.941925
10653.03,6.987851
10654.95,7.004289
10656.88,6.928276
10658.81,6.875305
10660.74,6.880809
10662.67,6.872372
10664.6,6.860953
10666.52,6.853896
10668.45,6.832075
10670.38,6.841077
10672.31,6.822045
10674.24,6.785182
10676.17,6.75381
10678.1,6.753168
10680.02,6.755616
10681.95,6.705873
10683.88,6.667057
10685.81,6.647287
10687.74,6.664269
10689.67,6.659701
10691.59,6.645891
10693.52,6.627706
10695.45,6.624258
10697.38,6.618222
10699.31,6.585463
10701.24,6.575778
10703.17,6.581832
10705.09,6.601603
10707.02,6.569017
10708.95,6.582162
10710.88,6.590393
10712.81,6.546817
10714.74,6.550582
10716.67,6.550932
10718.59,6.563695
10720.52,6.555019
10722.45,6.593405
10724.38,6.567935
10726.31,6.561062
10728.24,6.529735
10730.17,6.539041
10732.09,6.540714
10734.02,6.570796
10735.95,6.577261
10737.88,6.559774
10739.81,6.567132
10741.74,6.595752
10743.67,6.604502
10745.59,6.54252
10747.52,6.517933
10749.45,6.572045
10751.38,6.609645
10753.31,6.637794
10755.24,6.656991
10757.16,6.638393
10759.09,6.628368
10761.02,6.61032
10762.95,6.614856
10764.88,6.656717
10766.81,6.68253
10768.74,6.674875
10770.66,6.70949
10772.59,6.741978
10774.52,6.728405
10776.45,6.719016
10778.38,6.739029
10780.31,6.772577
10782.23,6.768741
10784.16,6.74743
10786.09,6.770616
10788.02,6.783182
10789.95,6.778687
10791.88,6.770628
10793.81,6.792399
10795.73,6.847765
10797.66,6.873288
10799.59,6.869222
10801.52,6.871115
10803.45,6.890086
10805.38,6.884521
10807.3,6.908298
10809.23,6.955463
10811.16,6.994602
10813.09,6.966172
10815.02,6.975763
10816.95,6.971902
10818.88,6.976565
10820.8,7.025129
10822.73,7.038733
10824.66,7.04706
10826.59,7.044698
10828.52,7.049216
10830.45,7.07778
10832.38,7.107316
10834.3,7.130753
10836.23,7.162551
10838.16,7.218544
10840.09,7.189995
10842.02,7.203059
10843.95,7.194623
10845.88,7.186487
10847.8,7.192894
10849.73,7.235756
10851.66,7.301721
10853.59,7.28142
10855.52,7.287005
10857.45,7.304565
10859.38,7.360469
10861.3,7.384203
10863.23,7.39618
10865.16,7.419847
10867.09,7.458047
10869.02,7.421773
10870.95,7.423728
10872.87,7.436319
10874.8,7.401314
10876.73,7.402574
10878.66,7.484969
10880.59,7.526187
10882.52,7.493165
10884.45,7.527946
10886.37,7.580519
10888.3,7.553515
10890.23,7.566148
10892.16,7.623352
10894.09,7.568309
10896.02,7.534336
10897.94,7.587301
10899.87,7.642175
10901.8,7.658792
10903.73,7.613152
10905.66,7.610924
10907.59,7.630722
10909.52,7.611933
10911.44,7.623145
10913.37,7.651141
10915.3,7.692113
10917.23,7.733594
10919.16,7.73212
10921.09,7.729285
10923.01,7.756578
10924.94,7.735253
10926.87,7.715507
10928.8,7.721853
10930.73,7.724786
10932.66,7.766984
10934.59,7.831356
10936.51,7.873327
10938.44,7.856964
10940.37,7.805239
10942.3,7.81581
10944.23,7.881702
10946.16,7.823756
10948.09,7.813164
10950.01,7.87464
10951.94,7.883022
10953.87,7.887944
10955.8,7.932288
10957.73,7.983138
10959.66,7.920627
10961.58,7.920152
10963.51,7.956491
10965.44,7.96637
10967.37,7.99415
10969.3,8.035051
10971.23,8.067937
10973.16,8.033702
10975.08,8.001651
10977.01,8.035235
10978.94,7.999372
10980.87,8.037623
10982.8,8.09811
10984.73,8.093227
10986.66,8.087613
10988.58,8.062387
10990.51,8.078111
10992.44,8.126214
10994.37,8.104277
10996.3,8.15278
10998.23,8.125634
11000.16,8.087577
11002.08,8.160769
11004.01,8.166984
11005.94,8.143414
11007.87,8.182751
11009.8,8.215107
11011.73,8.207131
11013.65,8.25185
11015.58,8.256968
11017.51,8.270584
11019.44,8.242476
11021.37,8.208946
11023.3,8.214381
11025.23,8.22427
11027.15,8.211229
11029.08,8.18449
11031.01,8.225538
11032.94,8.242141
11034.87,8.215816
11036.8,8.226121
11038.72,8.268782
11040.65,8.33733
11042.58,8.325067
11044.51,8.248879
11046.44,8.252019
11048.37,8.256252
11050.3,8.274949
11052.22,8.284112
11054.15,8.312314
11056.08,8.305346
11058.01,8.337663
11059.94,8.345953
11061.87,8.337917
11063.79,8.365876
11065.72,8.33253
11067.65,8.32082
11069.58,8.35956
11071.51,8.389716
11073.44,8.394814
11075.37,8.380291
11077.29,8.360343
11079.22,8.4072
11081.15,8.406682
11083.08,8.370783
11085.01,8.270287
11086.94,8.293061
11088.87,8.389972
11090.79,8.38071
11092.72,8.340311
11094.65,8.300861
11096.58,8.350473
11098.51,8.400728
11100.44,8.385415
11102.37,8.422036
11104.29,8.402043
11106.22,8.376644
11108.15,8.441625
11110.08,8.3741
11112.01,8.287901
11113.94,8.308511
11115.87,8.399919
11117.79,8.442357
11119.72,8.457605
11121.65,8.420796
11123.58,8.401389
11125.51,8.422923
11127.44,8.464743
11129.36,8.440989
11131.29,8.365302
11133.22,8.320756
11135.15,8.391023
11137.08,8.430556
11139.01,8.364714
11140.94,8.340618
11142.86,8.414938
11144.79,8.477313
11146.72,8.464152
11148.65,8.50307
11150.58,8.479246
11152.51,8.443483
11154.43,8.485724
11156.36,8.477592
11158.29,8.428328
11160.22,8.448175
11162.15,8.520485
11164.08,8.568294
11166.01,8.510246
11167.93,8.455108
11169.86,8.524215
11171.79,8.543452
11173.72,8.505029
11175.65,8.470047
11177.58,8.499126
11179.5,8.524927
11181.43,8.501017
11183.36,8.53555
11185.29,8.568747
11187.22,8.53422
11189.15,8.555578
11191.08,8.587649
11193.0,8.62727
11194.93,8.632752
11196.86,8.609128
11198.79,8.602401
11200.72,8.583484
11202.65,8.586258
11204.58,8.591763
11206.5,8.607252
11208.43,8.64369
11210.36,8.614596
11212.29,8.653169
11214.22,8.678233
11216.15,8.62322
11218.08,8.638792
11220.0,8.660909
11221.93,8.628984
11223.86,8.594842
11225.79,8.502536
11227.72,8.526677
11229.65,8.611845
11231.58,8.69364
11233.5,8.674882
11235.43,8.676262
11237.36,8.663764
11239.29,8.68717
11241.22,8.681776
11243.15,8.628891
11245.07,8.613646
11247.0,8.651538
11248.93,8.723242
11250.86,8.744582
11252.79,8.767312
11254.72,8.788323
11256.65,8.792479
11258.57,8.808311
11260.5,8.797998
11262.43,8.760493
11264.36,8.675074
11266.29,8.699901
11268.22,8.763828
11270.14,8.816917
11272.07,8.762885
11274.0,8.694979
11275.93,8.691135
11277.86,8.715514
11279.79,8.699338
11281.72,8.744671
11283.64,8.793302
11285.57,8.745346
11287.5,8.737879
11289.43,8.736685
11291.36,8.747397
11293.29,8.741806
11295.21,8.716988
11297.14,8.669944
11299.07,8.725607
11301.0,8.808084
11302.93,8.72492
11304.86,8.657904
11306.79,8.736452
11308.71,8.808673
11310.64,8.797369
11312.57,8.816337
11314.5,8.823226
11316.43,8.804509
11318.36,8.751889
11320.29,8.733304
11322.21,8.812495
11324.14,8.833453
11326.07,8.843905
11328.0,8.816608
11329.93,8.854284
11331.86,8.815704
11333.79,8.882167
11335.71,8.890085
11337.64,8.82215
11339.57,8.826519
11341.5,8.822184
11343.43,8.81653
11345.36,8.804588
11347.28,8.852977
11349.21,8.865528
11351.14,8.826862
11353.07,8.859201
11355.0,8.90034
11356.93,8.871196
11358.86,8.844791
11360.78,8.844133
11362.71,8.831801
11364.64,8.807513
11366.57,8.812263
11368.5,8.807281
11370.43,8.828001
11372.36,8.80507
11374.28,8.781833
11376.21,8.869947
11378.14,8.930995
11380.07,8.916922
11382.0,8.901859
11383.93,8.861604
11385.85,8.865413
11387.78,8.825741
11389.71,8.764373
11391.64,8.779691
11393.57,8.929429
11395.5,8.948027
11397.43,8.930279
11399.35,8.994514
11401.28,8.924809
11403.21,8.851282
11405.14,8.804111
11407.07,8.865623
11409.0,8.953523
11410.92,8.96909
11412.85,9.00351
11414.78,8.957915
11416.71,8.910272
11418.64,8.981998
11420.57,9.008924
11422.5,8.92118
11424.42,8.951328
11426.35,8.946631
11428.28,8.954762
11430.21,8.946335
11432.14,8.933138
11434.07,9.004265
11436.0,9.057991
11437.92,8.970331
11439.85,8.94493
11441.78,8.974823
11443.71,8.88965
11445.64,8.844572
11447.57,8.887674
11449.5,8.919712
11451.42,8.979709
11453.35,8.949635
11455.28,8.973989
11457.21,9.010239
11459.14,8.977043
11461.07,8.935569
11462.99,8.931019
11464.92,8.954203
11466.85,8.971522
11468.78,8.979229
11470.71,9.029313
11472.64,9.001121
11474.57,8.931737
11476.49,8.965538
11478.42,9.071877
11480.35,9.075969
11482.28,9.040121
11484.21,9.000157
11486.14,8.926376
11488.07,8.960341
11489.99,8.98657
11491.92,8.973084
11493.85,9.006064
11495.78,9.028161
11497.71,8.971198
11499.64,8.976993
11501.56,8.99005
11503.49,9.044606
11505.42,9.080192
11507.35,8.99907
11509.28,8.972685
11511.21,8.957585
11513.14,9.016028
11515.06,9.038655
11516.99,9.06011
11518.92,9.068722
11520.85,9.086024
11522.78,9.079305
11524.71,9.066318
11526.63,9.086079
11528.56,9.108971
11530.49,9.061969
11532.42,9.060954
11534.35,9.048687
11536.28,9.002483
11538.21,8.945043
11540.13,8.979115
11542.06,9.080381
11543.99,9.038713
11545.92,9.011396
11547.85,9.140583
11549.78,9.161283
11551.71,9.065988
11553.63,9.055694
11555.56,9.032876
11557.49,9.017745
11559.42,9.077969
11561.35,9.054046
11563.28,9.002899
11565.21,8.974186
11567.13,9.045067
11569.06,9.00515
11570.99,8.992306
11572.92,8.996655
11574.85,8.988671
11576.78,9.071948
11578.7,9.110059
11580.63,9.100181
11582.56,9.126058
11584.49,9.153882
11586.42,9.128562
11588.35,9.149207
11590.28,9.157257
11592.2,9.140546
11594.13,9.176177
11596.06,9.152503
11597.99,9.053521
11599.92,9.089043
11601.85,9.181578
11603.78,9.096365
11605.7,8.960375
11607.63,8.942548
11609.56,9.121041
11611.49,9.154545
11613.42,9.068368
11615.35,8.965466
11617.27,8.952468
11619.2,9.051757
11621.13,9.151407
11623.06,9.214299
11624.99,9.21524
11626.92,9.118186
11628.85,8.986251
11630.77,9.024443
11632.7,9.204125
11634.63,9.215626
11636.56,9.163051
11638.49,9.110029
11640.42,9.16997
11642.34,9.098639
11644.27,8.985401
11646.2,8.970776
11648.13,9.033859
11650.06,9.085145
11651.99,9.045753
11653.92,9.090881
11655.84,9.119258
11657.77,9.179442
11659.7,9.168297
11661.63,9.121436
11663.56,8.961639
11665.49,8.914857
11667.42,8.992638
11669.34,9.163429
11671.27,9.212712
11673.2,9.206321
11675.13,9.190837
11677.06,9.104254
11678.99,8.993291
11680.92,9.056601
11682.84,9.119999
11684.77,9.128863
11686.7,9.206746
11688.63,9.220303
11690.56,9.103467
11692.49,9.160245
11694.41,9.179313
11696.34,9.151714
11698.27,9.110626
11700.2,9.090461
11702.13,9.094578
11704.06,9.113194
11705.99,9.190284
11707.91,9.114063
11709.84,9.038774
11711.77,9.102037
11713.7,9.125734
11715.63,9.19551
11717.56,9.311538
11719.48,9.190599
11721.41,9.031961
11723.34,9.180368
11725.27,9.296676
11727.2,9.138055
11729.13,9.002098
11731.06,9.079342
11732.98,9.066874
11734.91,9.125283
11736.84,9.176287
11738.77,9.178167
11740.7,9.218719
11742.63,9.16596
11744.56,9.241429
11746.48,9.215709
11748.41,9.132889
11750.34,9.217295
11752.27,9.238848
11754.2,9.236409
11756.13,9.295812
11758.05,9.21536
11759.98,9.154955
11761.91,9.29443
11763.84,9.274423
11765.77,9.188057
11767.7,9.185684
11769.63,9.064707
11771.55,9.063475
11773.48,9.221594
11775.41,9.2482
11777.34,9.281369
11779.27,9.22583
11781.2,9.143332
11783.13,9.006552
11785.05,9.04286
11786.98,9.045562
11788.91,9.089831
11790.84,9.13833
11792.77,9.104515
11794.7,9.015668
11796.63,9.00104
11798.55,9.075443
11800.48,9.061591
11802.41,8.986103
11804.34,8.951953
11806.27,9.026044
11808.2,9.200609
11810.12,9.105333
11812.05,9.001449
11813.98,8.964526
11815.91,9.026506
11817.84,9.131777
11819.77,9.168085
11821.7,9.158243
11823.62,9.086715
11825.55,9.009126
11827.48,9.166605
11829.41,9.226423
11831.34,9.175088
11833.27,9.291689
11835.19,9.340771
11837.12,9.227427
11839.05,9.211269
11840.98,9.287843
11842.91,9.282553
11844.84,9.132778
11846.77,8.780552
11848.69,8.510089
11850.62,8.88981
11852.55,9.183131
11854.48,9.135377
11856.41,9.11783
11858.34,9.190407
11860.27,9.281538
11862.19,9.210096
11864.12,9.287642
11866.05,9.325125
11867.98,9.257192
11869.91,9.041444
11871.84,8.85294
11873.76,9.061096
11875.69,9.193354
11877.62,9.246198
11879.55,9.142535
11881.48,9.162
11883.41,9.073305
11885.34,8.988128
11887.26,9.043737
11889.19,9.136891
11891.12,9.022289
11893.05,8.964165
11894.98,9.057279
11896.91,9.023936
11898.83,8.996387
11900.76,9.029285
11902.69,9.037535
11904.62,9.173479
11906.55,9.211187
11908.48,9.178784
11910.41,9.171577
11912.33,9.016932
11914.26,8.873401
11916.19,8.90705
11918.12,8.960071
11920.05,9.107083
11921.98,9.222581
11923.91,9.184215
11925.83,9.079358
11927.76,9.120428
11929.69,9.28502
11931.62,9.178286
11933.55,8.999457
11935.48,8.950956
11937.41,8.977797
11939.33,9.074986
11941.26,9.137344
11943.19,9.05266
11945.12,9.112223
11947.05,9.218954
11948.98,9.317967
11950.9,9.177151
11952.83,9.051182
11954.76,9.13421
11956.69,9.182858
11958.62,9.132888
11960.55,9.174026
11962.48,9.087079
11964.4,9.113135
11966.33,9.117458
11968.26,9.100512
11970.19,9.12289
11972.12,8.945023
11974.05,8.93481
11975.98,8.944524
11977.9,9.018733
11979.83,9.113235
11981.76,9.121304
11983.69,9.117588
11985.62,9.150605
11987.55,9.343089
11989.47,9.297898
11991.4,8.944483
11993.33,8.825053
11995.26,9.002486
11997.19,9.01523
11999.12,9.118388
