Wavenumber,Intensity
3999.706,1.7436
4001.634,1.742844
4003.563,1.742298
4005.491,1.744701
4007.42,1.746778
4009.348,1.746106
4011.277,1.745696
4013.205,1.744738
4015.134,1.740409
4017.062,1.73884
4018.991,1.741098
4020.919,1.743864
4022.848,1.741817
4024.776,1.741005
4026.705,1.744501
4028.633,1.745365
4030.562,1.744562
4032.49,1.743007
4034.419,1.745853
4036.347,1.743872
4038.276,1.740941
4040.204,1.744657
4042.133,1.750115
4044.061,1.748421
4045.99,1.747697
4047.918,1.74844
4049.847,1.748708
4051.775,1.751258
4053.704,1.750661
4055.632,1.749676
4057.561,1.749337
4059.489,1.748366
4061.418,1.752377
4063.346,1.753812
4065.275,1.753697
4067.203,1.752455
4069.132,1.74847
4071.06,1.751168
4072.989,1.751529
4074.917,1.750627
4076.846,1.751865
4078.774,1.755056
4080.703,1.754681
4082.631,1.751008
4084.56,1.750684
4086.488,1.750544
4088.417,1.749668
4090.345,1.749309
4092.274,1.752837
4094.202,1.755465
4096.131,1.754409
4098.059,1.755012
4099.988,1.753052
4101.916,1.753069
4103.845,1.752654
4105.773,1.755236
4107.702,1.754082
4109.63,1.751607
4111.559,1.752069
4113.487,1.754048
4115.416,1.754413
4117.344,1.754685
4119.273,1.753565
4121.201,1.758421
4123.13,1.760949
4125.058,1.764924
4126.987,1.760654
4128.915,1.75622
4130.844,1.757543
4132.772,1.759122
4134.701,1.758278
4136.629,1.758155
4138.558,1.75979
4140.486,1.761428
4142.415,1.761136
4144.343,1.761344
4146.271,1.763101
4148.2,1.763009
4150.129,1.761134
4152.057,1.763009
4153.986,1.765365
4155.914,1.765512
4157.843,1.764701
4159.771,1.763199
4161.7,1.764116
4163.628,1.76148
4165.557,1.761774
4167.485,1.763613
4169.414,1.764802
4171.342,1.766596
4173.271,1.766985
4175.199,1.767023
4177.127,1.769624
4179.056,1.768306
4180.985,1.768008
4182.913,1.772094
4184.842,1.772533
4186.77,1.771912
4188.699,1.773309
4190.627,1.777551
4192.556,1.779155
4194.484,1.779147
4196.413,1.780643
4198.341,1.783764
4200.27,1.78619
4202.198,1.789277
4204.126,1.787858
4206.055,1.787271
4207.983,1.794156
4209.912,1.798808
4211.841,1.798944
4213.769,1.798647
4215.698,1.800683
4217.626,1.800482
4219.555,1.802304
4221.483,1.803363
4223.412,1.806252
4225.34,1.808164
4227.269,1.809316
4229.197,1.811062
4231.125,1.810894
4233.054,1.814504
4234.982,1.814581
4236.911,1.812961
4238.84,1.811278
4240.768,1.813241
4242.697,1.81232
4244.625,1.809825
4246.554,1.806306
4248.482,1.805626
4250.411,1.80877
4252.339,1.80861
4254.268,1.807459
4256.196,1.81054
4258.125,1.811274
4260.053,1.811284
4261.981,1.816083
4263.91,1.822982
4265.838,1.826608
4267.767,1.828074
4269.696,1.826828
4271.624,1.824683
4273.553,1.827521
4275.481,1.829269
4277.41,1.828773
4279.338,1.831299
4281.267,1.833827
4283.195,1.832662
4285.124,1.833696
4287.052,1.836982
4288.98,1.840602
4290.909,1.841146
4292.837,1.839741
4294.766,1.842612
4296.694,1.843727
4298.623,1.841383
4300.552,1.83979
4302.48,1.839929
4304.409,1.840341
4306.337,1.836499
4308.266,1.832033
4310.194,1.83345
4312.123,1.833977
4314.051,1.830186
4315.979,1.82289
4317.908,1.822417
4319.836,1.821036
4321.765,1.817816
4323.693,1.817073
4325.622,1.818395
4327.551,1.819056
4329.479,1.82067
4331.408,1.822203
4333.336,1.823393
4335.265,1.824448
4337.193,1.824345
4339.122,1.826474
4341.05,1.828492
4342.979,1.832014
4344.907,1.830649
4346.835,1.834091
4348.764,1.837284
4350.692,1.839888
4352.621,1.840224
4354.549,1.846874
4356.478,1.848571
4358.407,1.84827
4360.335,1.848267
4362.264,1.849398
4364.192,1.854304
4366.121,1.853386
4368.049,1.852914
4369.978,1.853443
4371.906,1.856766
4373.834,1.859358
4375.763,1.859445
4377.691,1.861478
4379.62,1.864141
4381.548,1.867755
4383.477,1.870951
4385.405,1.872831
4387.334,1.877169
4389.263,1.883611
4391.191,1.8883
4393.12,1.890277
4395.048,1.893435
4396.977,1.898537
4398.905,1.90544
4400.833,1.91318
4402.762,1.917629
4404.69,1.923899
4406.619,1.936155
4408.547,1.94649
4410.476,1.953945
4412.404,1.963986
4414.333,1.974606
4416.262,1.982639
4418.19,1.995833
4420.119,2.003941
4422.047,2.012689
4423.976,2.02597
4425.904,2.036556
4427.833,2.042753
4429.761,2.051424
4431.689,2.057933
4433.618,2.064495
4435.546,2.07554
4437.475,2.085048
4439.403,2.091168
4441.332,2.099547
4443.26,2.113047
4445.189,2.122822
4447.117,2.131685
4449.046,2.145284
4450.975,2.15766
4452.903,2.171163
4454.832,2.183423
4456.76,2.197138
4458.688,2.207112
4460.617,2.215014
4462.545,2.226036
4464.474,2.235555
4466.402,2.244923
4468.331,2.251523
4470.259,2.258098
4472.188,2.265344
4474.116,2.26952
4476.045,2.279552
4477.974,2.292037
4479.902,2.303845
4481.831,2.314413
4483.759,2.327281
4485.688,2.33912
4487.616,2.351016
4489.544,2.362515
4491.473,2.377787
4493.401,2.395207
4495.33,2.409793
4497.258,2.418796
4499.187,2.42683
4501.115,2.44359
4503.044,2.458135
4504.972,2.470457
4506.901,2.481011
4508.83,2.493463
4510.758,2.506979
4512.687,2.521123
4514.615,2.535301
4516.543,2.54712
4518.472,2.559257
4520.4,2.57353
4522.329,2.583949
4524.257,2.592422
4526.186,2.604391
4528.114,2.617857
4530.043,2.632574
4531.971,2.645985
4533.9,2.657882
4535.828,2.672363
4537.757,2.68759
4539.686,2.700079
4541.614,2.711665
4543.542,2.726593
4545.471,2.739391
4547.399,2.753469
4549.328,2.767736
4551.256,2.780929
4553.185,2.794292
4555.113,2.808558
4557.042,2.824261
4558.97,2.839129
4560.899,2.854388
4562.827,2.868553
4564.756,2.883831
4566.685,2.894208
4568.613,2.905742
4570.542,2.916067
4572.47,2.92696
4574.398,2.940671
4576.327,2.949269
4578.255,2.958795
4580.184,2.967236
4582.112,2.976324
4584.041,2.983176
4585.969,2.988083
4587.898,2.995354
4589.826,3.000739
4591.755,3.006648
4593.683,3.012352
4595.612,3.013576
4597.54,3.017885
4599.469,3.023343
4601.397,3.027336
4603.326,3.030201
4605.254,3.037759
4607.183,3.044285
4609.111,3.048334
4611.04,3.053706
4612.968,3.05938
4614.897,3.065001
4616.825,3.072538
4618.754,3.080062
4620.682,3.088242
4622.611,3.099913
4624.539,3.106545
4626.468,3.109068
4628.396,3.114397
4630.325,3.118028
4632.253,3.119801
4634.182,3.12324
4636.11,3.12553
4638.039,3.129311
4639.967,3.130407
4641.896,3.129476
4643.824,3.130986
4645.753,3.133089
4647.681,3.133765
4649.61,3.130976
4651.538,3.126321
4653.467,3.121136
4655.396,3.113282
4657.324,3.104618
4659.252,3.092302
4661.181,3.07915
4663.109,3.067193
4665.038,3.055491
4666.966,3.051681
4668.895,3.056165
4670.823,3.06162
4672.752,3.074985
4674.68,3.094588
4676.609,3.118244
4678.537,3.132037
4680.466,3.145113
4682.394,3.157796
4684.323,3.168786
4686.251,3.173563
4688.18,3.178164
4690.108,3.183041
4692.037,3.188186
4693.965,3.186553
4695.894,3.184828
4697.822,3.187542
4699.751,3.185882
4701.679,3.182208
4703.608,3.180242
4705.536,3.179293
4707.465,3.174248
4709.393,3.164325
4711.322,3.157153
4713.25,3.146222
4715.179,3.138357
4717.107,3.134286
4719.036,3.126026
4720.964,3.11831
4722.893,3.116333
4724.821,3.114271
4726.75,3.110024
4728.678,3.107656
4730.606,3.104725
4732.535,3.105866
4734.464,3.10747
4736.392,3.105443
4738.321,3.10865
4740.249,3.110373
4742.178,3.107372
4744.106,3.102426
4746.035,3.101806
4747.963,3.097844
4749.892,3.094922
4751.82,3.091395
4753.749,3.085629
4755.677,3.079634
4757.605,3.076421
4759.534,3.069753
4761.463,3.062612
4763.391,3.05864
4765.32,3.051416
4767.248,3.041484
4769.177,3.030889
4771.105,3.016305
4773.034,3.004683
4774.962,2.995375
4776.891,2.988901
4778.819,2.982495
4780.748,2.98032
4782.676,2.977653
4784.604,2.971498
4786.533,2.970737
4788.462,2.969203
4790.39,2.964699
4792.319,2.961609
4794.247,2.957721
4796.176,2.954919
4798.104,2.954914
4800.033,2.951271
4801.961,2.94448
4803.89,2.935884
4805.818,2.927157
4807.747,2.920904
4809.675,2.915459
4811.604,2.908536
4813.532,2.898413
4815.46,2.889266
4817.389,2.879628
4819.317,2.870142
4821.246,2.861045
4823.175,2.852322
4825.103,2.84791
4827.032,2.843175
4828.96,2.83559
4830.889,2.828331
4832.817,2.822221
4834.746,2.817561
4836.674,2.80833
4838.603,2.79728
4840.531,2.78525
4842.459,2.774368
4844.388,2.767713
4846.316,2.759276
4848.245,2.747548
4850.174,2.735717
4852.102,2.723305
4854.031,2.71498
4855.959,2.705906
4857.888,2.695049
4859.816,2.687513
4861.745,2.680493
4863.673,2.674672
4865.602,2.670069
4867.53,2.66904
4869.458,2.66823
4871.387,2.667629
4873.315,2.670559
4875.244,2.672272
4877.172,2.674521
4879.101,2.678838
4881.03,2.682138
4882.958,2.687174
4884.887,2.691692
4886.815,2.696486
4888.744,2.700156
4890.672,2.70674
4892.601,2.711237
4894.529,2.712951
4896.458,2.713591
4898.386,2.713886
4900.314,2.719251
4902.243,2.724037
4904.171,2.727679
4906.1,2.729279
4908.028,2.730448
4909.957,2.733934
4911.886,2.734304
4913.814,2.73341
4915.743,2.732949
4917.671,2.735147
4919.6,2.736211
4921.528,2.735812
4923.457,2.734923
4925.385,2.733579
4927.313,2.731372
4929.242,2.731848
4931.17,2.733131
4933.099,2.731184
4935.027,2.73301
4936.956,2.734294
4938.885,2.731368
4940.813,2.726681
4942.742,2.722865
4944.67,2.719062
4946.599,2.709846
4948.527,2.697809
4950.456,2.685568
4952.384,2.673466
4954.313,2.65569
4956.241,2.630404
4958.169,2.607397
4960.098,2.593381
4962.026,2.582974
4963.955,2.576846
4965.883,2.578068
4967.812,2.583706
4969.74,2.591518
4971.669,2.599511
4973.598,2.607727
4975.526,2.614661
4977.455,2.615324
4979.383,2.620586
4981.312,2.629812
4983.24,2.637337
4985.168,2.645871
4987.097,2.653382
4989.025,2.662572
4990.954,2.671182
4992.882,2.679362
4994.811,2.691519
4996.739,2.706916
4998.668,2.719279
5000.597,2.728934
5002.525,2.741737
5004.454,2.750766
5006.382,2.756563
5008.311,2.762843
5010.239,2.76509
5012.167,2.764493
5014.096,2.768607
5016.024,2.770674
5017.953,2.768154
5019.881,2.769332
5021.81,2.775282
5023.738,2.780924
5025.667,2.782877
5027.596,2.787272
5029.524,2.790276
5031.452,2.79683
5033.381,2.798359
5035.31,2.800364
5037.238,2.802467
5039.167,2.801243
5041.095,2.799406
5043.023,2.80032
5044.952,2.80274
5046.88,2.805081
5048.809,2.805345
5050.737,2.799544
5052.666,2.792947
5054.595,2.790915
5056.523,2.786501
5058.451,2.77721
5060.38,2.772362
5062.309,2.770651
5064.237,2.77249
5066.166,2.773852
5068.094,2.77413
5070.022,2.773
5071.951,2.775002
5073.879,2.774801
5075.808,2.773443
5077.736,2.773377
5079.665,2.77277
5081.593,2.768115
5083.522,2.767604
5085.45,2.764042
5087.379,2.760561
5089.308,2.759679
5091.236,2.758635
5093.165,2.757884
5095.093,2.755895
5097.021,2.753937
5098.95,2.752289
5100.878,2.751932
5102.807,2.754988
5104.735,2.759808
5106.664,2.760229
5108.592,2.762578
5110.521,2.768221
5112.449,2.771557
5114.378,2.774136
5116.307,2.777638
5118.235,2.777693
5120.163,2.780139
5122.092,2.783661
5124.021,2.789677
5125.949,2.791945
5127.877,2.794684
5129.806,2.797329
5131.734,2.800278
5133.663,2.799935
5135.591,2.797762
5137.52,2.796512
5139.448,2.794824
5141.377,2.792826
5143.305,2.78955
5145.234,2.784763
5147.162,2.779081
5149.091,2.772145
5151.02,2.768307
5152.948,2.763434
5154.876,2.761297
5156.805,2.762015
5158.733,2.759902
5160.662,2.757418
5162.59,2.758412
5164.519,2.761436
5166.447,2.763667
5168.376,2.767244
5170.304,2.765711
5172.233,2.764168
5174.161,2.75976
5176.09,2.756686
5178.019,2.757492
5179.947,2.756902
5181.875,2.753003
5183.804,2.753023
5185.732,2.755212
5187.661,2.753001
5189.589,2.755847
5191.518,2.753797
5193.446,2.757043
5195.375,2.761724
5197.303,2.766936
5199.232,2.763299
5201.16,2.764323
5203.089,2.765585
5205.018,2.770562
5206.946,2.776783
5208.874,2.769114
5210.803,2.761886
5212.731,2.759105
5214.66,2.763525
5216.588,2.7659
5218.517,2.769857
5220.445,2.769101
5222.374,2.769511
5224.302,2.775831
5226.231,2.780007
5228.159,2.777458
5230.088,2.778302
5232.016,2.783731
5233.945,2.782272
5235.873,2.781504
5237.802,2.782805
5239.73,2.78553
5241.659,2.787901
5243.587,2.797696
5245.516,2.803951
5247.444,2.807161
5249.373,2.807351
5251.301,2.800475
5253.229,2.805388
5255.158,2.809766
5257.087,2.806741
5259.015,2.80522
5260.944,2.810732
5262.872,2.816384
5264.801,2.819612
5266.729,2.814652
5268.658,2.810462
5270.586,2.808424
5272.515,2.805732
5274.443,2.80327
5276.372,2.802157
5278.3,2.807152
5280.229,2.810017
5282.157,2.808675
5284.086,2.815262
5286.014,2.816289
5287.943,2.810026
5289.871,2.815396
5291.8,2.815041
5293.729,2.809459
5295.657,2.805394
5297.585,2.802311
5299.514,2.798503
5301.442,2.790767
5303.371,2.783557
5305.299,2.783252
5307.228,2.784965
5309.156,2.779933
5311.085,2.780631
5313.013,2.789323
5314.941,2.801564
5316.87,2.815469
5318.799,2.826413
5320.727,2.835471
5322.656,2.842945
5324.584,2.848361
5326.513,2.852594
5328.441,2.856241
5330.37,2.852296
5332.298,2.850765
5334.227,2.841373
5336.155,2.839527
5338.084,2.842383
5340.012,2.831975
5341.94,2.814078
5343.869,2.809258
5345.798,2.799837
5347.726,2.779996
5349.655,2.766841
5351.583,2.757959
5353.512,2.752248
5355.44,2.738392
5357.369,2.723944
5359.297,2.713459
5361.226,2.708334
5363.154,2.700774
5365.083,2.690621
5367.011,2.679652
5368.939,2.671962
5370.868,2.666404
5372.797,2.660493
5374.725,2.650789
5376.654,2.648511
5378.582,2.647412
5380.511,2.638413
5382.439,2.636619
5384.368,2.632836
5386.296,2.633133
5388.225,2.622768
5390.153,2.61415
5392.082,2.606563
5394.01,2.608528
5395.938,2.602376
5397.867,2.591811
5399.796,2.576345
5401.724,2.568458
5403.652,2.55889
5405.581,2.549423
5407.51,2.537616
5409.438,2.528945
5411.367,2.515983
5413.295,2.500577
5415.224,2.486979
5417.152,2.469022
5419.081,2.460941
5421.009,2.456993
5422.938,2.451087
5424.866,2.445227
5426.795,2.444217
5428.723,2.44419
5430.651,2.437917
5432.58,2.429639
5434.509,2.429969
5436.437,2.430759
5438.366,2.425356
5440.294,2.426422
5442.223,2.428963
5444.151,2.421797
5446.08,2.417687
5448.008,2.416305
5449.937,2.416111
5451.865,2.409915
5453.793,2.404149
5455.722,2.405877
5457.65,2.40547
5459.579,2.400511
5461.508,2.39907
5463.436,2.397485
5465.365,2.390779
5467.293,2.387564
5469.222,2.388202
5471.15,2.380681
5473.079,2.375841
5475.007,2.376705
5476.936,2.369349
5478.864,2.358443
5480.792,2.353583
5482.721,2.344246
5484.649,2.34042
5486.578,2.334999
5488.507,2.333878
5490.435,2.330272
5492.363,2.329304
5494.292,2.332582
5496.221,2.329207
5498.149,2.330876
5500.078,2.332629
5502.006,2.333392
5503.935,2.338818
5505.863,2.341105
5507.792,2.340485
5509.72,2.343469
5511.648,2.352149
5513.577,2.352222
5515.505,2.352846
5517.434,2.35571
5519.362,2.35572
5521.291,2.356691
5523.22,2.357691
5525.148,2.35594
5527.077,2.353204
5529.005,2.351926
5530.934,2.349348
5532.862,2.350508
5534.791,2.350616
5536.719,2.352229
5538.647,2.351295
5540.576,2.347699
5542.504,2.344018
5544.433,2.339903
5546.361,2.340202
5548.29,2.342343
5550.219,2.340787
5552.147,2.337646
5554.076,2.340253
5556.004,2.341746
5557.933,2.342985
5559.861,2.342701
5561.79,2.349759
5563.718,2.358039
5565.646,2.364621
5567.575,2.370003
5569.503,2.376563
5571.432,2.384402
5573.36,2.392252
5575.289,2.401373
5577.218,2.413329
5579.146,2.42471
5581.074,2.432486
5583.003,2.439273
5584.932,2.447033
5586.86,2.451751
5588.789,2.451114
5590.717,2.447719
5592.646,2.445847
5594.574,2.444246
5596.502,2.445227
5598.431,2.439981
5600.359,2.430989
5602.288,2.425733
5604.216,2.416399
5606.145,2.406122
5608.073,2.395802
5610.002,2.385407
5611.931,2.376591
5613.859,2.37076
5615.788,2.363714
5617.716,2.352024
5619.645,2.340903
5621.573,2.333975
5623.501,2.326818
5625.43,2.317014
5627.358,2.308008
5629.287,2.302925
5631.215,2.29696
5633.144,2.285976
5635.072,2.277302
5637.001,2.269988
5638.93,2.260267
5640.858,2.24728
5642.786,2.233305
5644.715,2.215281
5646.644,2.19676
5648.572,2.174394
5650.5,2.151751
5652.429,2.129604
5654.357,2.103163
5656.286,2.083102
5658.214,2.0673
5660.143,2.055137
5662.071,2.050107
5664.0,2.049586
5665.929,2.051095
5667.857,2.05858
5669.785,2.06829
5671.714,2.078413
5673.643,2.086638
5675.571,2.0988
5677.5,2.113933
5679.428,2.126632
5681.356,2.137161
5683.285,2.144557
5685.213,2.152722
5687.142,2.163677
5689.07,2.173989
5690.999,2.185074
5692.927,2.192477
5694.856,2.203336
5696.784,2.219137
5698.713,2.233102
5700.642,2.247884
5702.57,2.262758
5704.499,2.279886
5706.427,2.295807
5708.355,2.306229
5710.284,2.313409
5712.212,2.319942
5714.141,2.326226
5716.069,2.32607
5717.998,2.320674
5719.926,2.311737
5721.855,2.295171
5723.783,2.272869
5725.712,2.243657
5727.641,2.21017
5729.569,2.185278
5731.497,2.168676
5733.426,2.161578
5735.354,2.16198
5737.283,2.159398
5739.211,2.151492
5741.14,2.141428
5743.068,2.131186
5744.997,2.115523
5746.925,2.101338
5748.854,2.088214
5750.782,2.076299
5752.711,2.066819
5754.639,2.055631
5756.568,2.046867
5758.496,2.037435
5760.425,2.027306
5762.354,2.015566
5764.282,2.008333
5766.21,2.001427
5768.139,1.995998
5770.067,1.995272
5771.996,1.992277
5773.924,1.988296
5775.853,1.98734
5777.781,1.989111
5779.71,1.995063
5781.638,1.999249
5783.567,2.002428
5785.495,2.006014
5787.424,2.008612
5789.353,2.01197
5791.281,2.017833
5793.209,2.02243
5795.138,2.026592
5797.066,2.031035
5798.995,2.032254
5800.923,2.035318
5802.852,2.043236
5804.78,2.047469
5806.709,2.055055
5808.637,2.063551
5810.566,2.06925
5812.494,2.074927
5814.423,2.080951
5816.352,2.087844
5818.28,2.094779
5820.208,2.103966
5822.137,2.113445
5824.065,2.119777
5825.994,2.125782
5827.922,2.138053
5829.851,2.149794
5831.779,2.161819
5833.708,2.174581
5835.636,2.1889
5837.565,2.20397
5839.493,2.216728
5841.422,2.230644
5843.35,2.247537
5845.279,2.268686
5847.207,2.288048
5849.136,2.314578
5851.064,2.347692
5852.993,2.379977
5854.921,2.41774
5856.85,2.456478
5858.778,2.498643
5860.707,2.547354
5862.635,2.597808
5864.563,2.652617
5866.492,2.711823
5868.421,2.771516
5870.349,2.834544
5872.278,2.89513
5874.206,2.956217
5876.135,3.020992
5878.063,3.083441
5879.992,3.144044
5881.92,3.202609
5883.849,3.260778
5885.777,3.316887
5887.706,3.367924
5889.634,3.414151
5891.563,3.456195
5893.491,3.49186
5895.42,3.52548
5897.348,3.556633
5899.277,3.583904
5901.205,3.618544
5903.134,3.655664
5905.063,3.692466
5906.991,3.728403
5908.919,3.773179
5910.848,3.819665
5912.776,3.864561
5914.705,3.914752
5916.633,3.963891
5918.562,4.011966
5920.49,4.062495
5922.419,4.11215
5924.347,4.163177
5926.276,4.207712
5928.204,4.255013
5930.133,4.30229
5932.061,4.348328
5933.99,4.389874
5935.918,4.430939
5937.847,4.468925
5939.775,4.509451
5941.704,4.548673
5943.632,4.583598
5945.561,4.616922
5947.489,4.652883
5949.418,4.688401
5951.346,4.724587
5953.274,4.766656
5955.203,4.809389
5957.132,4.852087
5959.06,4.898408
5960.989,4.946337
5962.917,4.996406
5964.846,5.050167
5966.774,5.10835
5968.703,5.159657
5970.631,5.210508
5972.56,5.26319
5974.488,5.313164
5976.417,5.35971
5978.345,5.409078
5980.273,5.456115
5982.202,5.501524
5984.131,5.542829
5986.059,5.583083
5987.988,5.624826
5989.916,5.667077
5991.845,5.706329
5993.773,5.745392
5995.702,5.785798
5997.63,5.821719
5999.559,5.854603
6001.487,5.886912
6003.416,5.923768
6005.344,5.962246
6007.272,5.996685
6009.201,6.028968
6011.13,6.061243
6013.058,6.095443
6014.986,6.129229
6016.915,6.167672
6018.844,6.205076
6020.772,6.235025
6022.701,6.266395
6024.629,6.303512
6026.558,6.335536
6028.486,6.364542
6030.415,6.393615
6032.343,6.423145
6034.271,6.446872
6036.2,6.472812
6038.129,6.496636
6040.057,6.519251
6041.985,6.541539
6043.914,6.566752
6045.843,6.588799
6047.771,6.609116
6049.7,6.629214
6051.628,6.658053
6053.557,6.677602
6055.485,6.693184
6057.414,6.710145
6059.342,6.727268
6061.271,6.74218
6063.199,6.760121
6065.128,6.773738
6067.056,6.784292
6068.984,6.798789
6070.913,6.818208
6072.842,6.829699
6074.77,6.842083
6076.698,6.856004
6078.627,6.874038
6080.556,6.889931
6082.484,6.905384
6084.413,6.916749
6086.341,6.924848
6088.27,6.930726
6090.198,6.938
6092.126,6.937599
6094.055,6.927473
6095.983,6.912736
6097.912,6.893118
6099.841,6.865214
6101.769,6.836565
6103.697,6.811221
6105.626,6.799181
6107.555,6.797436
6109.483,6.804664
6111.412,6.818976
6113.34,6.838004
6115.269,6.859296
6117.197,6.888556
6119.125,6.913596
6121.054,6.939877
6122.982,6.970786
6124.911,7.003345
6126.84,7.027867
6128.768,7.050003
6130.696,7.074652
6132.625,7.097164
6134.554,7.117018
6136.482,7.140437
6138.41,7.163349
6140.339,7.185225
6142.268,7.201257
6144.196,7.221232
6146.125,7.23774
6148.053,7.256825
6149.981,7.270418
6151.91,7.288313
6153.839,7.304667
6155.767,7.321448
6157.695,7.336648
6159.624,7.350851
6161.553,7.364553
6163.481,7.380438
6165.409,7.389133
6167.338,7.403048
6169.267,7.41941
6171.195,7.435013
6173.124,7.446929
6175.052,7.459544
6176.98,7.47239
6178.909,7.484152
6180.837,7.490003
6182.766,7.499059
6184.694,7.510007
6186.623,7.516138
6188.552,7.523816
6190.48,7.530989
6192.408,7.536851
6194.337,7.54245
6196.266,7.550018
6198.194,7.560314
6200.123,7.565954
6202.051,7.574953
6203.979,7.579903
6205.908,7.588425
6207.836,7.595675
6209.765,7.602056
6211.693,7.608071
6213.622,7.617197
6215.551,7.624744
6217.479,7.632539
6219.407,7.638316
6221.336,7.64266
6223.265,7.648388
6225.193,7.656264
6227.121,7.664014
6229.05,7.672331
6230.979,7.677233
6232.907,7.684011
6234.835,7.686022
6236.764,7.689191
6238.692,7.692701
6240.621,7.694314
6242.549,7.698813
6244.478,7.703969
6246.406,7.700699
6248.335,7.703644
6250.264,7.703821
6252.192,7.705916
6254.12,7.711845
6256.049,7.71641
6257.978,7.714058
6259.906,7.718334
6261.834,7.72043
6263.763,7.723602
6265.691,7.726262
6267.62,7.726388
6269.548,7.730069
6271.477,7.735969
6273.405,7.737738
6275.334,7.74311
6277.263,7.744022
6279.191,7.743678
6281.119,7.745253
6283.048,7.750283
6284.977,7.751683
6286.905,7.752983
6288.833,7.752852
6290.762,7.752444
6292.69,7.752584
6294.619,7.755877
6296.547,7.756825
6298.476,7.762363
6300.404,7.765457
6302.333,7.766219
6304.262,7.766263
6306.19,7.770957
6308.118,7.770442
6310.047,7.773222
6311.976,7.772079
6313.904,7.771323
6315.832,7.770832
6317.761,7.770684
6319.689,7.764939
6321.618,7.760574
6323.546,7.75899
6325.475,7.755571
6327.403,7.750139
6329.332,7.746574
6331.26,7.744461
6333.189,7.738836
6335.117,7.731685
6337.046,7.730185
6338.975,7.727544
6340.903,7.724435
6342.831,7.715009
6344.76,7.703157
6346.688,7.697678
6348.617,7.694506
6350.545,7.687403
6352.474,7.677436
6354.402,7.668859
6356.331,7.665131
6358.259,7.654063
6360.188,7.644462
6362.116,7.638779
6364.045,7.630891
6365.974,7.613865
6367.902,7.598213
6369.83,7.581883
6371.759,7.563249
6373.688,7.54803
6375.616,7.538297
6377.544,7.526489
6379.473,7.51704
6381.401,7.512192
6383.33,7.510502
6385.258,7.502352
6387.187,7.495213
6389.115,7.494309
6391.044,7.495838
6392.973,7.491359
6394.901,7.484122
6396.829,7.47971
6398.758,7.471488
6400.687,7.455379
6402.615,7.437289
6404.543,7.415885
6406.472,7.398695
6408.4,7.377569
6410.329,7.356634
6412.257,7.339637
6414.186,7.322118
6416.114,7.304454
6418.043,7.290181
6419.971,7.280752
6421.9,7.273419
6423.828,7.264264
6425.757,7.259693
6427.686,7.252383
6429.614,7.246413
6431.542,7.238809
6433.471,7.227474
6435.399,7.216679
6437.328,7.205309
6439.256,7.188979
6441.185,7.167477
6443.113,7.143295
6445.042,7.122494
6446.97,7.09872
6448.898,7.073175
6450.827,7.049522
6452.756,7.021035
6454.685,6.991091
6456.613,6.959871
6458.541,6.925879
6460.47,6.884072
6462.398,6.834454
6464.327,6.782028
6466.255,6.724072
6468.184,6.649098
6470.112,6.569682
6472.041,6.485156
6473.969,6.403875
6475.897,6.326119
6477.826,6.254618
6479.755,6.204362
6481.684,6.173576
6483.612,6.160163
6485.54,6.168993
6487.469,6.185369
6489.397,6.207613
6491.326,6.239161
6493.254,6.273358
6495.183,6.305203
6497.111,6.335559
6499.04,6.368449
6500.968,6.399528
6502.896,6.42495
6504.825,6.449712
6506.754,6.473574
6508.682,6.498096
6510.61,6.5262
6512.539,6.54145
6514.468,6.556907
6516.396,6.571227
6518.325,6.587452
6520.253,6.597968
6522.182,6.610542
6524.11,6.624264
6526.039,6.642025
6527.967,6.654308
6529.896,6.666317
6531.824,6.678627
6533.753,6.686492
6535.681,6.697632
6537.609,6.708767
6539.538,6.716761
6541.467,6.727012
6543.396,6.733428
6545.324,6.738354
6547.252,6.74097
6549.181,6.7543
6551.109,6.762841
6553.038,6.765278
6554.966,6.769529
6556.895,6.782712
6558.823,6.790946
6560.752,6.790751
6562.68,6.802057
6564.608,6.817733
6566.537,6.8297
6568.466,6.841053
6570.394,6.848384
6572.323,6.857998
6574.251,6.869475
6576.18,6.877205
6578.108,6.883311
6580.037,6.897636
6581.965,6.903321
6583.894,6.902619
6585.822,6.904925
6587.751,6.910512
6589.679,6.913793
6591.607,6.916132
6593.536,6.918962
6595.465,6.921288
6597.393,6.921589
6599.321,6.926122
6601.25,6.928642
6603.179,6.926572
6605.107,6.925532
6607.036,6.925922
6608.964,6.928175
6610.893,6.933191
6612.821,6.927042
6614.75,6.926285
6616.678,6.927358
6618.606,6.925563
6620.535,6.92497
6622.464,6.923967
6624.392,6.918611
6626.32,6.913331
6628.249,6.910267
6630.178,6.906562
6632.106,6.903348
6634.035,6.899066
6635.963,6.895885
6637.892,6.890403
6639.82,6.884633
6641.749,6.883094
6643.677,6.871339
6645.605,6.864017
6647.534,6.861928
6649.463,6.856258
6651.391,6.848826
6653.319,6.843296
6655.248,6.832956
6657.177,6.824302
6659.105,6.821239
6661.034,6.815302
6662.962,6.798371
6664.891,6.787585
6666.819,6.777817
6668.748,6.77425
6670.676,6.769228
6672.604,6.757974
6674.533,6.746911
6676.462,6.742049
6678.39,6.729094
6680.318,6.719923
6682.247,6.711441
6684.176,6.699161
6686.104,6.683134
6688.032,6.675595
6689.961,6.663413
6691.89,6.648866
6693.818,6.634618
6695.747,6.619574
6697.675,6.609365
6699.604,6.595099
6701.532,6.579867
6703.46,6.568682
6705.389,6.552539
6707.317,6.534873
6709.246,6.515492
6711.175,6.500008
6713.103,6.48169
6715.031,6.466918
6716.96,6.451527
6718.889,6.433062
6720.817,6.42042
6722.746,6.410277
6724.674,6.393936
6726.603,6.375939
6728.531,6.361237
6730.459,6.348293
6732.388,6.337687
6734.316,6.324934
6736.245,6.311459
6738.174,6.295236
6740.102,6.280919
6742.03,6.268117
6743.959,6.251383
6745.888,6.236779
6747.816,6.223084
6749.745,6.213584
6751.673,6.201236
6753.602,6.18717
6755.53,6.172837
6757.458,6.156987
6759.387,6.142641
6761.315,6.132431
6763.244,6.119041
6765.173,6.10367
6767.101,6.08577
6769.029,6.070304
6770.958,6.049445
6772.887,6.029593
6774.815,6.011374
6776.743,5.989062
6778.672,5.964684
6780.601,5.938839
6782.529,5.910895
6784.458,5.892685
6786.386,5.865653
6788.314,5.833574
6790.243,5.805061
6792.171,5.778466
6794.1,5.750703
6796.028,5.726132
6797.957,5.697074
6799.886,5.663048
6801.814,5.628743
6803.742,5.60311
6805.671,5.575416
6807.6,5.549415
6809.528,5.525892
6811.457,5.498957
6813.385,5.469953
6815.313,5.441084
6817.242,5.410196
6819.17,5.378384
6821.099,5.353222
6823.027,5.322375
6824.956,5.286855
6826.885,5.258773
6828.813,5.229565
6830.741,5.19805
6832.67,5.171834
6834.599,5.148367
6836.527,5.127707
6838.455,5.116995
6840.384,5.104655
6842.313,5.090724
6844.241,5.073263
6846.169,5.065056
6848.098,5.058641
6850.026,5.044267
6851.955,5.02949
6853.884,5.020413
6855.812,5.003378
6857.74,4.983817
6859.669,4.977171
6861.598,4.968612
6863.526,4.950903
6865.454,4.932951
6867.383,4.916294
6869.312,4.898667
6871.24,4.887056
6873.168,4.87676
6875.097,4.860402
6877.025,4.844576
6878.954,4.827096
6880.882,4.8093
6882.811,4.786167
6884.739,4.763137
6886.668,4.742273
6888.597,4.72731
6890.525,4.707973
6892.453,4.683726
6894.382,4.662697
6896.311,4.642139
6898.239,4.625974
6900.167,4.61285
6902.096,4.596915
6904.024,4.581762
6905.953,4.571822
6907.881,4.566325
6909.81,4.551263
6911.738,4.537857
6913.667,4.527698
6915.596,4.510542
6917.524,4.495481
6919.452,4.479032
6921.381,4.459741
6923.31,4.441436
6925.238,4.415805
6927.166,4.395608
6929.095,4.36911
6931.023,4.342404
6932.952,4.317744
6934.88,4.294967
6936.809,4.26595
6938.737,4.234714
6940.666,4.200995
6942.594,4.167073
6944.523,4.144136
6946.451,4.128065
6948.38,4.109473
6950.309,4.097065
6952.237,4.092481
6954.165,4.089617
6956.094,4.085487
6958.022,4.083283
6959.951,4.088221
6961.879,4.093608
6963.808,4.091665
6965.736,4.08996
6967.665,4.086541
6969.593,4.092504
6971.521,4.101434
6973.45,4.10431
6975.379,4.096397
6977.308,4.091799
6979.236,4.093893
6981.164,4.091949
6983.093,4.082338
6985.021,4.079064
6986.95,4.079024
6988.878,4.073887
6990.807,4.064929
6992.735,4.059543
6994.664,4.050395
6996.592,4.033134
6998.521,4.017505
7000.449,4.008907
7002.378,3.996725
7004.307,3.983647
7006.235,3.967036
7008.163,3.952042
7010.092,3.936858
7012.021,3.922327
7013.949,3.91439
7015.877,3.902729
7017.806,3.886204
7019.734,3.877586
7021.663,3.872177
7023.591,3.868289
7025.52,3.862571
7027.448,3.865835
7029.377,3.877868
7031.305,3.88949
7033.234,3.890471
7035.162,3.891147
7037.091,3.895855
7039.02,3.904361
7040.948,3.905455
7042.876,3.906516
7044.805,3.895599
7046.733,3.875827
7048.662,3.849503
7050.59,3.822474
7052.519,3.79555
7054.447,3.762306
7056.376,3.72218
7058.304,3.687243
7060.232,3.662568
7062.161,3.649346
7064.09,3.648343
7066.019,3.664483
7067.947,3.691092
7069.875,3.729705
7071.804,3.779886
7073.732,3.827498
7075.661,3.875124
7077.589,3.929279
7079.518,3.975914
7081.446,4.015615
7083.375,4.047763
7085.303,4.07899
7087.231,4.100034
7089.16,4.116632
7091.089,4.134624
7093.018,4.156206
7094.946,4.179144
7096.874,4.197088
7098.803,4.209475
7100.731,4.226863
7102.66,4.254196
7104.588,4.29332
7106.517,4.327328
7108.445,4.3513
7110.374,4.382216
7112.302,4.413296
7114.23,4.440432
7116.159,4.478853
7118.088,4.517136
7120.016,4.526795
7121.944,4.548555
7123.873,4.569541
7125.802,4.58335
7127.73,4.590334
7129.659,4.59717
7131.587,4.595061
7133.516,4.588114
7135.444,4.577115
7137.373,4.554201
7139.301,4.537637
7141.229,4.517119
7143.158,4.483179
7145.087,4.453182
7147.015,4.412552
7148.943,4.366736
7150.872,4.315265
7152.801,4.246588
7154.729,4.171805
7156.658,4.084798
7158.586,3.991079
7160.515,3.882707
7162.443,3.753277
7164.372,3.626777
7166.3,3.514392
7168.229,3.428025
7170.157,3.368039
7172.086,3.334856
7174.014,3.339534
7175.942,3.373281
7177.871,3.429805
7179.8,3.499307
7181.729,3.595807
7183.657,3.674293
7185.585,3.753556
7187.514,3.834139
7189.442,3.923066
7191.371,4.004486
7193.299,4.084772
7195.228,4.162405
7197.156,4.236337
7199.085,4.306625
7201.013,4.383402
7202.941,4.458797
7204.87,4.539289
7206.799,4.6052
7208.727,4.675213
7210.655,4.736382
7212.584,4.795404
7214.513,4.8538
7216.441,4.915939
7218.37,4.975944
7220.298,5.046939
7222.227,5.103017
7224.155,5.170008
7226.083,5.247106
7228.012,5.310102
7229.94,5.367654
7231.869,5.467465
7233.798,5.531733
7235.726,5.572695
7237.654,5.626313
7239.583,5.692966
7241.512,5.765674
7243.44,5.836322
7245.369,5.877553
7247.297,5.926591
7249.226,5.982254
7251.154,6.046001
7253.083,6.116183
7255.011,6.174362
7256.939,6.225348
7258.868,6.283085
7260.797,6.34227
7262.725,6.404693
7264.653,6.45252
7266.582,6.511073
7268.511,6.569269
7270.439,6.620043
7272.368,6.686667
7274.296,6.74471
7276.225,6.78964
7278.153,6.847363
7280.082,6.903544
7282.01,6.962697
7283.938,7.016081
7285.867,7.068767
7287.796,7.131092
7289.724,7.180379
7291.652,7.220663
7293.581,7.286919
7295.51,7.346005
7297.438,7.386149
7299.366,7.448688
7301.295,7.491102
7303.224,7.532549
7305.152,7.591204
7307.081,7.654455
7309.009,7.704092
7310.938,7.760422
7312.866,7.801248
7314.794,7.839289
7316.723,7.887049
7318.651,7.923664
7320.58,7.967802
7322.509,8.018194
7324.437,8.057592
7326.365,8.091564
7328.294,8.144626
7330.223,8.163782
7332.151,8.182854
7334.08,8.202967
7336.008,8.232122
7337.937,8.263155
7339.865,8.309255
7341.793,8.3286
7343.722,8.349301
7345.65,8.363722
7347.579,8.385251
7349.508,8.404989
7351.436,8.42091
7353.364,8.443655
7355.293,8.481357
7357.222,8.499601
7359.15,8.510779
7361.079,8.537389
7363.007,8.559985
7364.936,8.577396
7366.864,8.604119
7368.792,8.632059
7370.721,8.640675
7372.649,8.65222
7374.578,8.685954
7376.507,8.708513
7378.435,8.718761
7380.363,8.744306
7382.292,8.759246
7384.221,8.766837
7386.149,8.777555
7388.077,8.785111
7390.006,8.800307
7391.935,8.812276
7393.863,8.829585
7395.792,8.83637
7397.72,8.847289
7399.648,8.857944
7401.577,8.86209
7403.505,8.87011
7405.434,8.881586
7407.362,8.887607
7409.291,8.900782
7411.22,8.901928
7413.148,8.898025
7415.076,8.906531
7417.005,8.923496
7418.934,8.930867
7420.862,8.934702
7422.791,8.934274
7424.719,8.939678
7426.647,8.950988
7428.576,8.958156
7430.504,8.959517
7432.433,8.957001
7434.361,8.960843
7436.29,8.97416
7438.219,8.976684
7440.147,8.980109
7442.075,8.984944
7444.004,8.986733
7445.933,8.990664
7447.861,8.998868
7449.789,9.005821
7451.718,9.009662
7453.646,9.013544
7455.575,9.025275
7457.503,9.028816
7459.432,9.029935
7461.36,9.033075
7463.289,9.039267
7465.218,9.038873
7467.146,9.039958
7469.074,9.044851
7471.003,9.046712
7472.932,9.040919
7474.86,9.041205
7476.788,9.04767
7478.717,9.044313
7480.646,9.041965
7482.574,9.044666
7484.502,9.0447
7486.431,9.052506
7488.359,9.044443
7490.288,9.041591
7492.216,9.038807
7494.145,9.036798
7496.073,9.03914
7498.002,9.03467
7499.931,9.030878
7501.859,9.033033
7503.787,9.029177
7505.716,9.027779
7507.645,9.022286
7509.573,9.027342
7511.501,9.032381
7513.43,9.034506
7515.358,9.031779
7517.287,9.02979
7519.215,9.029227
7521.144,9.025419
7523.072,9.024757
7525.001,9.025795
7526.93,9.0182
7528.858,9.017504
7530.786,9.022736
7532.715,9.018949
7534.644,9.015529
7536.572,9.01231
7538.5,9.007434
7540.429,9.007573
7542.357,9.005351
7544.286,9.002789
7546.214,9.00157
7548.143,8.995835
7550.071,8.99254
7552.0,8.985786
7553.928,8.982582
7555.857,8.980406
7557.785,8.979458
7559.714,8.974015
7561.643,8.969594
7563.571,8.968221
7565.499,8.968546
7567.428,8.960184
7569.356,8.955141
7571.285,8.950017
7573.213,8.942516
7575.142,8.938406
7577.07,8.935888
7578.999,8.937743
7580.927,8.930368
7582.855,8.926926
7584.784,8.923943
7586.713,8.918648
7588.642,8.914056
7590.57,8.910521
7592.498,8.901179
7594.427,8.891273
7596.355,8.887182
7598.284,8.880954
7600.212,8.880334
7602.141,8.879667
7604.069,8.868937
7605.998,8.860585
7607.926,8.857479
7609.854,8.850863
7611.783,8.839478
7613.712,8.828801
7615.641,8.822782
7617.569,8.815051
7619.497,8.805844
7621.426,8.80438
7623.354,8.798766
7625.283,8.786107
7627.211,8.776555
7629.14,8.767779
7631.068,8.758465
7632.997,8.75031
7634.925,8.750271
7636.854,8.739149
7638.782,8.722198
7640.711,8.712845
7642.639,8.707176
7644.568,8.702513
7646.496,8.70236
7648.425,8.693398
7650.354,8.683075
7652.282,8.673647
7654.21,8.663146
7656.139,8.65697
7658.067,8.656808
7659.996,8.655762
7661.924,8.645084
7663.853,8.626186
7665.781,8.617355
7667.71,8.615334
7669.638,8.608358
7671.566,8.597156
7673.495,8.592144
7675.424,8.585152
7677.353,8.581241
7679.281,8.591007
7681.209,8.594127
7683.138,8.58678
7685.066,8.572335
7686.995,8.560709
7688.923,8.559238
7690.852,8.557492
7692.78,8.552106
7694.709,8.54759
7696.637,8.548414
7698.565,8.544802
7700.494,8.545412
7702.423,8.533684
7704.352,8.522398
7706.28,8.522158
7708.208,8.516996
7710.137,8.510994
7712.065,8.503507
7713.994,8.501432
7715.922,8.497131
7717.851,8.488599
7719.779,8.478731
7721.708,8.479423
7723.636,8.474167
7725.564,8.464364
7727.493,8.45491
7729.422,8.444516
7731.35,8.439085
7733.279,8.44538
7735.207,8.445862
7737.136,8.437188
7739.064,8.428279
7740.993,8.422402
7742.921,8.423549
7744.85,8.422077
7746.778,8.418598
7748.707,8.407194
7750.635,8.401188
7752.563,8.402701
7754.492,8.398898
7756.421,8.394107
7758.349,8.383852
7760.277,8.36676
7762.206,8.352193
7764.135,8.353523
7766.063,8.348756
7767.992,8.336803
7769.92,8.333904
7771.849,8.332741
7773.777,8.329288
7775.706,8.323483
7777.634,8.317407
7779.563,8.311774
7781.491,8.311373
7783.42,8.312455
7785.348,8.309814
7787.276,8.300562
7789.205,8.300558
7791.134,8.293591
7793.063,8.286521
7794.991,8.281829
7796.919,8.276391
7798.848,8.269916
7800.776,8.267565
7802.705,8.260372
7804.633,8.254449
7806.562,8.247516
7808.49,8.248837
7810.419,8.243235
7812.347,8.227595
7814.275,8.220501
7816.204,8.218563
7818.133,8.21347
7820.061,8.201992
7821.989,8.193157
7823.918,8.194746
7825.847,8.191318
7827.775,8.177115
7829.704,8.175261
7831.632,8.16446
7833.561,8.155908
7835.489,8.147362
7837.417,8.142435
7839.346,8.130845
7841.274,8.11748
7843.203,8.111945
7845.132,8.103609
7847.06,8.10024
7848.988,8.091797
7850.917,8.082977
7852.846,8.068846
7854.774,8.054304
7856.703,8.038723
7858.631,8.02659
7860.56,8.0205
7862.488,8.010254
7864.417,7.996144
7866.345,7.986124
7868.273,7.975949
7870.202,7.964072
7872.131,7.95562
7874.059,7.94589
7875.987,7.926315
7877.916,7.914263
7879.845,7.903549
7881.773,7.889835
7883.702,7.871168
7885.63,7.86568
7887.559,7.855279
7889.487,7.838627
7891.416,7.825284
7893.344,7.809096
7895.272,7.790139
7897.201,7.790415
7899.13,7.802508
7901.058,7.772279
7902.986,7.742787
7904.915,7.720412
7906.844,7.706568
7908.772,7.688653
7910.7,7.674223
7912.629,7.668828
7914.558,7.654142
7916.486,7.634572
7918.415,7.614547
7920.343,7.596495
7922.271,7.584768
7924.2,7.577816
7926.128,7.559501
7928.057,7.530659
7929.985,7.514282
7931.914,7.499053
7933.843,7.478471
7935.771,7.462297
7937.699,7.44957
7939.628,7.432875
7941.557,7.419192
7943.485,7.400301
7945.414,7.37675
7947.342,7.350457
7949.271,7.3338
7951.199,7.312013
7953.127,7.291843
7955.056,7.272427
7956.984,7.246365
7958.913,7.220809
7960.842,7.19803
7962.77,7.173151
7964.698,7.154224
7966.627,7.142692
7968.556,7.126677
7970.484,7.094789
7972.413,7.07098
7974.341,7.05433
7976.27,7.030082
7978.198,6.998791
7980.126,6.980636
7982.055,6.967391
7983.983,6.945049
7985.912,6.918719
7987.841,6.886627
7989.769,6.855939
7991.697,6.833187
7993.626,6.81163
7995.555,6.795887
7997.483,6.780671
7999.411,6.753603
8001.34,6.715123
8003.269,6.689342
8005.197,6.667838
8007.125,6.644774
8009.054,6.621568
8010.982,6.597707
8012.911,6.570605
8014.839,6.533729
8016.768,6.504153
8018.696,6.471515
8020.625,6.443017
8022.554,6.412187
8024.482,6.382387
8026.41,6.36276
8028.339,6.333032
8030.268,6.298703
8032.196,6.26319
8034.125,6.231822
8036.053,6.213541
8037.981,6.195872
8039.91,6.163074
8041.838,6.124853
8043.767,6.093208
8045.695,6.060641
8047.624,6.017241
8049.553,5.982858
8051.481,5.956311
8053.409,5.927279
8055.338,5.892501
8057.267,5.858596
8059.195,5.824152
8061.124,5.78802
8063.052,5.755769
8064.98,5.718056
8066.909,5.684815
8068.837,5.659167
8070.766,5.623894
8072.694,5.581829
8074.623,5.556261
8076.552,5.523053
8078.48,5.483565
8080.408,5.442888
8082.337,5.410767
8084.266,5.370827
8086.194,5.330185
8088.122,5.295547
8090.051,5.256819
8091.979,5.217976
8093.908,5.188493
8095.836,5.161983
8097.765,5.116882
8099.693,5.075837
8101.622,5.037127
8103.551,5.005265
8105.479,4.96589
8107.407,4.925121
8109.336,4.887747
8111.265,4.841127
8113.192,4.79746
8115.121,4.757584
8117.05,4.719244
8118.979,4.676515
8120.907,4.639186
8122.835,4.605359
8124.764,4.567733
8126.692,4.515551
8128.621,4.468435
8130.55,4.426553
8132.478,4.382399
8134.406,4.344999
8136.335,4.309834
8138.264,4.260208
8140.191,4.211927
8142.12,4.173977
8144.049,4.139302
8145.978,4.09853
8147.906,4.049111
8149.834,4.003935
8151.763,3.963501
8153.691,3.92485
8155.62,3.882952
8157.548,3.848614
8159.477,3.810599
8161.405,3.762502
8163.334,3.718368
8165.263,3.682014
8167.19,3.636224
8169.119,3.590516
8171.048,3.55807
8172.977,3.522121
8174.905,3.480265
8176.833,3.440348
8178.762,3.402175
8180.69,3.368838
8182.619,3.335256
8184.547,3.308017
8186.476,3.270304
8188.404,3.24144
8190.333,3.226609
8192.262,3.201736
8194.189,3.16462
8196.118,3.137052
8198.047,3.120575
8199.976,3.104891
8201.903,3.092272
8203.832,3.07808
8205.761,3.061578
8207.689,3.039475
8209.618,3.019517
8211.546,3.012646
8213.475,3.006285
8215.403,3.001622
8217.332,2.996122
8219.261,2.993922
8221.188,2.995658
8223.117,2.994447
8225.046,2.994858
8226.975,2.99135
8228.902,2.991551
8230.831,2.990966
8232.76,2.997543
8234.688,3.000739
8236.617,3.004752
8238.545,3.012579
8240.474,3.009066
8242.402,3.014391
8244.331,3.020988
8246.259,3.023244
8248.188,3.034822
8250.116,3.03524
8252.045,3.03442
8253.974,3.045387
8255.901,3.068717
8257.83,3.07094
8259.759,3.077668
8261.688,3.091165
8263.616,3.097665
8265.544,3.109544
8267.473,3.116904
8269.401,3.13757
8271.33,3.163397
8273.258,3.175596
8275.187,3.196486
8277.115,3.220962
8279.044,3.233878
8280.973,3.251704
8282.9,3.277949
8284.829,3.306454
8286.758,3.332048
8288.687,3.357225
8290.614,3.385117
8292.543,3.419188
8294.472,3.442084
8296.4,3.458926
8298.329,3.487386
8300.257,3.514119
8302.186,3.536027
8304.114,3.566857
8306.043,3.599478
8307.972,3.623871
8309.899,3.652175
8311.828,3.683534
8313.757,3.710403
8315.686,3.734921
8317.613,3.766299
8319.542,3.795965
8321.471,3.82068
8323.399,3.853419
8325.328,3.885483
8327.256,3.913213
8329.185,3.937687
8331.113,3.962619
8333.042,3.995771
8334.97,4.028725
8336.898,4.059113
8338.827,4.091747
8340.756,4.122045
8342.685,4.147161
8344.612,4.188572
8346.541,4.225017
8348.47,4.259364
8350.398,4.297087
8352.327,4.342396
8354.255,4.380499
8356.184,4.414302
8358.112,4.443526
8360.041,4.483387
8361.969,4.52301
8363.897,4.559885
8365.826,4.600711
8367.755,4.631237
8369.684,4.675662
8371.611,4.712697
8373.54,4.743625
8375.469,4.77563
8377.397,4.809442
8379.325,4.846953
8381.254,4.880323
8383.183,4.906932
8385.111,4.940395
8387.04,4.970435
8388.968,4.997145
8390.896,5.021848
8392.825,5.040408
8394.754,5.063409
8396.683,5.083435
8398.61,5.092124
8400.539,5.096787
8402.468,5.109261
8404.396,5.11597
8406.324,5.125895
8408.253,5.133939
8410.182,5.125512
8412.11,5.119102
8414.039,5.12074
8415.967,5.127906
8417.896,5.129233
8419.824,5.135944
8421.753,5.141517
8423.681,5.135978
8425.609,5.139461
8427.538,5.159726
8429.467,5.173725
8431.396,5.193272
8433.323,5.213104
8435.252,5.240646
8437.181,5.275926
8439.109,5.31681
8441.037,5.36258
8442.966,5.407504
8444.895,5.445502
8446.823,5.495925
8448.752,5.547589
8450.68,5.592527
8452.608,5.638841
8454.537,5.672741
8456.466,5.713247
8458.395,5.750332
8460.322,5.783347
8462.251,5.809056
8464.18,5.835904
8466.108,5.873579
8468.036,5.906908
8469.965,5.932768
8471.894,5.973473
8473.822,6.003844
8475.751,6.026362
8477.679,6.071915
8479.607,6.110943
8481.536,6.152758
8483.465,6.193941
8485.393,6.235091
8487.321,6.272056
8489.25,6.299057
8491.179,6.335582
8493.107,6.374089
8495.035,6.3998
8496.964,6.424451
8498.893,6.447661
8500.821,6.476817
8502.75,6.494215
8504.678,6.510867
8506.606,6.525291
8508.535,6.532085
8510.464,6.544277
8512.392,6.557843
8514.32,6.581583
8516.249,6.585769
8518.178,6.593758
8520.106,6.617501
8522.034,6.640257
8523.963,6.664341
8525.892,6.669352
8527.82,6.673095
8529.748,6.688845
8531.677,6.693701
8533.605,6.698797
8535.534,6.704648
8537.463,6.703317
8539.391,6.686274
8541.319,6.664292
8543.248,6.639463
8545.177,6.60537
8547.105,6.579195
8549.033,6.556418
8550.962,6.516323
8552.891,6.466196
8554.819,6.426933
8556.747,6.378791
8558.676,6.330931
8560.604,6.30297
8562.533,6.277838
8564.462,6.266233
8566.39,6.280544
8568.318,6.31081
8570.247,6.343261
8572.176,6.390062
8574.104,6.446533
8576.032,6.495613
8577.961,6.537274
8579.89,6.59044
8581.818,6.648351
8583.746,6.698872
8585.675,6.750544
8587.604,6.822917
8589.532,6.894793
8591.461,6.965621
8593.389,7.0383
8595.317,7.113687
8597.246,7.178842
8599.175,7.238658
8601.103,7.298631
8603.031,7.37026
8604.96,7.431858
8606.889,7.494749
8608.817,7.570041
8610.745,7.640871
8612.674,7.693347
8614.603,7.74956
8616.531,7.811131
8618.459,7.871695
8620.388,7.925831
8622.316,7.976008
8624.245,8.017974
8626.174,8.070638
8628.102,8.1278
8630.03,8.173351
8631.959,8.214114
8633.888,8.266149
8635.816,8.312698
8637.744,8.352263
8639.673,8.383131
8641.602,8.425776
8643.53,8.466991
8645.458,8.504661
8647.387,8.551962
8649.315,8.584784
8651.244,8.611159
8653.173,8.640194
8655.101,8.661369
8657.029,8.700362
8658.958,8.737876
8660.887,8.775436
8662.814,8.800132
8664.743,8.815525
8666.672,8.838763
8668.601,8.864103
8670.529,8.880879
8672.457,8.904055
8674.386,8.936635
8676.314,8.961979
8678.243,8.986153
8680.172,9.012383
8682.1,9.034716
8684.028,9.066807
8685.957,9.092152
8687.886,9.111852
8689.813,9.13663
8691.742,9.159041
8693.671,9.188539
8695.6,9.228143
8697.528,9.255247
8699.456,9.278963
8701.385,9.311118
8703.313,9.344055
8705.242,9.368404
8707.17,9.402359
8709.099,9.42332
8711.027,9.454929
8712.956,9.4929
8714.885,9.518938
8716.813,9.547776
8718.741,9.582297
8720.67,9.601208
8722.599,9.628669
8724.527,9.663554
8726.455,9.690717
8728.384,9.714869
8730.313,9.748488
8732.241,9.790754
8734.169,9.821722
8736.098,9.837298
8738.026,9.861433
8739.955,9.901347
8741.884,9.935275
8743.812,9.960524
8745.74,9.977217
8747.669,9.996671
8749.598,10.03246
8751.525,10.06646
8753.454,10.09225
8755.383,10.12143
8757.312,10.13841
8759.24,10.14216
8761.168,10.1675
8763.097,10.19622
8765.025,10.22331
8766.954,10.23594
8768.882,10.25319
8770.811,10.27171
8772.739,10.28168
8774.668,10.29847
8776.597,10.31854
8778.524,10.34433
8780.453,10.37611
8782.382,10.39093
8784.311,10.40183
8786.239,10.40991
8788.167,10.41996
8790.096,10.44274
8792.024,10.45389
8793.953,10.46041
8795.881,10.47391
8797.81,10.48892
8799.738,10.49568
8801.667,10.49958
8803.596,10.51978
8805.523,10.54104
8807.452,10.55145
8809.381,10.56981
8811.31,10.58001
8813.237,10.58276
8815.166,10.58867
8817.095,10.59524
8819.023,10.59174
8820.952,10.59774
8822.88,10.62466
8824.809,10.64128
8826.737,10.6353
8828.666,10.62244
8830.595,10.63392
8832.522,10.64551
8834.451,10.65255
8836.38,10.64719
8838.309,10.65711
8840.236,10.66705
8842.165,10.66406
8844.094,10.66256
8846.022,10.67463
8847.951,10.67456
8849.879,10.65856
8851.808,10.6709
8853.736,10.68949
8855.665,10.6958
8857.593,10.6946
8859.521,10.69429
8861.45,10.70148
8863.379,10.7046
8865.308,10.71749
8867.235,10.72703
8869.164,10.72191
8871.093,10.72678
8873.021,10.73441
8874.95,10.73148
8876.878,10.72226
8878.807,10.71906
8880.735,10.72909
8882.664,10.73008
8884.592,10.72587
8886.521,10.71999
8888.449,10.72445
8890.378,10.73974
8892.307,10.74206
8894.234,10.72476
8896.163,10.72071
8898.092,10.73495
8900.021,10.73608
8901.948,10.74281
8903.877,10.74417
8905.806,10.72924
8907.734,10.7212
8909.663,10.71785
8911.591,10.71894
8913.52,10.71624
8915.448,10.71795
8917.377,10.71673
8919.306,10.71633
8921.233,10.72588
8923.162,10.73032
8925.091,10.72899
8927.02,10.72698
8928.947,10.73021
8930.876,10.72611
8932.805,10.72208
8934.733,10.71356
8936.662,10.71865
8938.59,10.71084
8940.519,10.70923
8942.447,10.70953
8944.376,10.70018
8946.304,10.71043
8948.232,10.72051
8950.161,10.7198
8952.09,10.71385
8954.019,10.71202
8955.946,10.71141
8957.875,10.70662
8959.804,10.70873
8961.732,10.70463
8963.661,10.70866
8965.589,10.71753
8967.518,10.73541
8969.446,10.73842
8971.375,10.72055
8973.303,10.71209
8975.231,10.71705
8977.16,10.73683
8979.089,10.74762
8981.018,10.75704
8982.945,10.7611
8984.874,10.75151
8986.803,10.73732
8988.731,10.74202
8990.659,10.74843
8992.588,10.75706
8994.517,10.7486
8996.445,10.74691
8998.374,10.74475
9000.302,10.75928
9002.23,10.77165
9004.159,10.77397
9006.088,10.76451
9008.017,10.75798
9009.944,10.78158
9011.873,10.79778
9013.802,10.79144
9015.73,10.80078
9017.658,10.8051
9019.587,10.80003
9021.516,10.80424
9023.444,10.8089
9025.373,10.81398
9027.301,10.82247
9029.229,10.83504
9031.158,10.82893
9033.087,10.82444
9035.015,10.80772
9036.943,10.81496
9038.872,10.82074
9040.801,10.82298
9042.729,10.83493
9044.657,10.84287
9046.586,10.84079
9048.515,10.84119
9050.443,10.8381
9052.372,10.84757
9054.3,10.85856
9056.229,10.84447
9058.157,10.85269
9060.086,10.8611
9062.014,10.85937
9063.942,10.85663
9065.871,10.86438
9067.8,10.86231
9069.729,10.8563
9071.656,10.85989
9073.585,10.86343
9075.514,10.85728
9077.442,10.85277
9079.37,10.87444
9081.299,10.88887
9083.228,10.88017
9085.156,10.88218
9087.085,10.87453
9089.013,10.86298
9090.941,10.87173
9092.87,10.86045
9094.799,10.86071
9096.727,10.87709
9098.655,10.87389
9100.584,10.8838
9102.513,10.89538
9104.441,10.9003
9106.369,10.89349
9108.298,10.88415
9110.227,10.87644
9112.155,10.88936
9114.084,10.89771
9116.012,10.89354
9117.94,10.88009
9119.869,10.88811
9121.798,10.88469
9123.726,10.88245
9125.654,10.87655
9127.583,10.86456
9129.512,10.8758
9131.44,10.88621
9133.368,10.87534
9135.297,10.86433
9137.226,10.88317
9139.154,10.90231
9141.082,10.89438
9143.011,10.87507
9144.939,10.87537
9146.868,10.87203
9148.797,10.87432
9150.725,10.88124
9152.653,10.88594
9154.582,10.8932
9156.511,10.89318
9158.439,10.89037
9160.367,10.86447
9162.296,10.85267
9164.225,10.85125
9166.153,10.85995
9168.081,10.86265
9170.01,10.84995
9171.938,10.84433
9173.867,10.87294
9175.796,10.88135
9177.724,10.86333
9179.652,10.84384
9181.581,10.84003
9183.51,10.84003
9185.438,10.83736
9187.366,10.83087
9189.295,10.83432
9191.224,10.8309
9193.152,10.83314
9195.08,10.8185
9197.009,10.81262
9198.938,10.82223
9200.866,10.82657
9202.795,10.81506
9204.723,10.82104
9206.651,10.81824
9208.58,10.81541
9210.509,10.8301
9212.437,10.83167
9214.365,10.8151
9216.294,10.80165
9218.223,10.79327
9220.151,10.80179
9222.079,10.79321
9224.008,10.78383
9225.937,10.79414
9227.865,10.79133
9229.793,10.78562
9231.722,10.79963
9233.65,10.80852
9235.579,10.78152
9237.508,10.76954
9239.436,10.78822
9241.364,10.80029
9243.293,10.79665
9245.222,10.79152
9247.15,10.79575
9249.078,10.78892
9251.007,10.79357
9252.936,10.79504
9254.864,10.785
9256.792,10.77373
9258.721,10.77559
9260.649,10.76388
9262.578,10.7631
9264.507,10.77518
9266.435,10.77466
9268.363,10.76373
9270.292,10.77166
9272.221,10.7759
9274.148,10.77562
9276.077,10.75962
9278.006,10.75738
9279.935,10.76295
9281.863,10.77081
9283.791,10.76589
9285.72,10.75117
9287.648,10.72203
9289.577,10.73127
9291.506,10.7497
9293.434,10.74995
9295.362,10.74144
9297.291,10.73522
9299.22,10.7321
9301.147,10.74567
9303.076,10.76355
9305.005,10.76399
9306.934,10.74616
9308.862,10.7404
9310.79,10.74051
9312.719,10.74143
9314.647,10.74044
9316.576,10.7566
9318.504,10.76882
9320.433,10.76184
9322.361,10.76226
9324.29,10.76062
9326.219,10.76857
9328.146,10.75793
9330.075,10.75152
9332.004,10.75383
9333.933,10.75132
9335.861,10.7368
9337.789,10.73925
9339.718,10.76282
9341.646,10.76043
9343.575,10.74992
9345.503,10.75582
9347.432,10.76735
9349.36,10.76399
9351.289,10.75935
9353.218,10.749
9355.146,10.7422
9357.074,10.72949
9359.003,10.7298
9360.932,10.73051
9362.859,10.70942
9364.788,10.69429
9366.717,10.70242
9368.646,10.72505
9370.574,10.72715
9372.502,10.72366
9374.431,10.7067
9376.359,10.69013
9378.288,10.69941
9380.217,10.70657
9382.145,10.70944
9384.073,10.67958
9386.002,10.6916
9387.931,10.67737
9389.858,10.667
9391.787,10.66581
9393.716,10.65543
9395.645,10.66418
9397.573,10.67181
9399.501,10.65793
9401.43,10.64845
9403.358,10.64584
9405.287,10.65006
9407.215,10.63251
9409.144,10.62517
9411.072,10.62763
9413.001,10.63148
9414.93,10.62997
9416.857,10.61793
9418.786,10.60572
9420.715,10.60479
9422.644,10.60244
9424.571,10.59363
9426.5,10.59301
9428.429,10.58266
9430.357,10.5745
9432.286,10.57725
9434.214,10.57207
9436.143,10.55869
9438.071,10.55136
9440.0,10.52833
9441.929,10.51976
9443.856,10.52689
9445.785,10.51245
9447.714,10.49563
9449.643,10.50502
9451.57,10.51113
9453.499,10.50672
9455.428,10.4975
9457.356,10.49101
9459.285,10.48089
9461.213,10.46612
9463.142,10.47165
9465.07,10.45364
9466.999,10.4402
9468.927,10.44356
9470.855,10.44243
9472.784,10.4313
9474.713,10.42577
9476.642,10.42464
9478.569,10.42847
9480.498,10.43681
9482.427,10.44372
9484.355,10.43614
9486.284,10.4331
9488.212,10.42185
9490.141,10.42001
9492.069,10.41385
9493.998,10.40687
9495.926,10.39807
9497.854,10.3883
9499.783,10.38382
9501.712,10.3801
9503.641,10.38408
9505.568,10.38473
9507.497,10.38415
9509.426,10.38857
9511.354,10.38469
9513.282,10.37925
9515.211,10.36462
9517.14,10.36217
9519.068,10.36133
9520.997,10.34468
9522.925,10.34347
9524.854,10.36408
9526.782,10.36333
9528.711,10.33255
9530.64,10.33508
9532.567,10.35542
9534.496,10.34876
9536.425,10.33736
9538.354,10.31738
9540.281,10.31735
9542.21,10.30874
9544.139,10.2906
9546.067,10.2795
9547.996,10.28729
9549.924,10.29761
9551.853,10.31493
9553.781,10.30971
9555.71,10.28963
9557.638,10.2724
9559.566,10.26093
9561.495,10.27161
9563.424,10.28122
9565.353,10.26518
9567.28,10.25624
9569.209,10.24468
9571.138,10.24253
9573.066,10.24982
9574.995,10.23925
9576.923,10.22505
9578.852,10.21865
9580.78,10.21902
9582.709,10.19433
9584.637,10.20246
9586.565,10.22991
9588.494,10.21984
9590.423,10.20936
9592.352,10.21796
9594.279,10.19961
9596.208,10.18615
9598.137,10.20173
9600.065,10.22181
9601.993,10.21798
9603.922,10.22137
9605.851,10.22286
9607.779,10.23616
9609.708,10.25324
9611.636,10.24729
9613.564,10.24189
9615.493,10.26127
9617.422,10.27618
9619.351,10.2801
9621.278,10.29631
9623.207,10.29348
9625.136,10.29879
9627.064,10.30889
9628.992,10.3066
9630.921,10.29543
9632.85,10.30726
9634.778,10.32009
9636.707,10.33435
9638.635,10.33434
9640.563,10.3362
9642.492,10.37496
9644.421,10.38676
9646.349,10.39649
9648.277,10.39366
9650.206,10.39739
9652.135,10.4142
9654.063,10.42133
9655.991,10.4501
9657.92,10.45558
9659.849,10.44369
9661.777,10.45906
9663.706,10.47545
9665.634,10.48224
9667.563,10.50167
9669.491,10.52194
9671.42,10.5425
9673.348,10.54067
9675.276,10.54656
9677.205,10.56498
9679.134,10.5627
9681.063,10.57738
9682.99,10.6043
9684.919,10.60806
9686.848,10.63064
9688.776,10.64958
9690.704,10.65162
9692.633,10.63835
9694.562,10.63008
9696.49,10.64001
9698.419,10.6459
9700.347,10.66553
9702.275,10.67237
9704.204,10.69016
9706.133,10.69379
9708.062,10.70264
9709.989,10.70984
9711.918,10.7188
9713.847,10.73466
9715.775,10.7605
9717.703,10.77209
9719.632,10.78072
9721.561,10.79237
9723.489,10.78834
9725.418,10.80737
9727.346,10.82109
9729.274,10.83656
9731.203,10.83791
9733.132,10.83758
9735.06,10.84564
9736.988,10.8596
9738.917,10.87968
9740.846,10.88675
9742.774,10.88631
9744.702,10.91689
9746.631,10.92449
9748.56,10.93019
9750.488,10.95561
9752.416,10.96576
9754.345,10.96537
9756.273,10.9566
9758.202,10.96597
9760.131,10.97348
9762.059,10.97818
9763.987,10.97214
9765.916,10.97315
9767.845,10.95891
9769.773,10.95906
9771.701,10.96283
9773.63,10.97792
9775.559,10.99502
9777.487,10.99773
9779.415,10.99664
9781.344,11.02485
9783.272,11.01718
9785.201,10.98515
9787.13,10.99561
9789.058,11.01682
9790.986,11.01109
9792.915,11.01257
9794.844,11.0293
9796.771,11.04047
9798.7,11.02992
9800.629,11.01741
9802.558,11.01619
9804.486,11.01468
9806.414,10.99778
9808.343,10.97923
9810.271,11.003
9812.2,11.00769
9814.129,11.00379
9816.057,11.03494
9817.985,11.01681
9819.914,11.00056
9821.843,11.0267
9823.771,11.0229
9825.699,11.01236
9827.628,11.02157
9829.557,11.03438
9831.485,11.05975
9833.413,11.07772
9835.342,11.08548
9837.271,11.08554
9839.199,11.065
9841.127,11.04493
9843.056,11.05409
9844.984,11.08216
9846.913,11.10282
9848.842,11.10814
9850.77,11.13604
9852.698,11.14457
9854.627,11.12223
9856.556,11.15205
9858.484,11.18093
9860.412,11.1695
9862.341,11.18049
9864.27,11.21169
9866.198,11.21307
9868.126,11.19178
9870.055,11.21534
9871.983,11.24497
9873.912,11.22548
9875.841,11.24524
9877.769,11.28649
9879.697,11.29519
9881.626,11.31301
9883.555,11.32601
9885.482,11.32444
9887.411,11.33551
9889.34,11.34491
9891.269,11.34235
9893.197,11.34469
9895.125,11.35776
9897.054,11.36345
9898.982,11.37735
9900.911,11.37375
9902.84,11.38633
9904.768,11.39048
9906.696,11.41812
9908.625,11.43096
9910.554,11.45227
9912.481,11.46047
9914.41,11.46925
9916.339,11.49128
9918.268,11.48345
9920.196,11.45161
9922.124,11.44847
9924.053,11.47845
9925.981,11.49216
9927.91,11.50431
9929.838,11.49039
9931.767,11.51032
9933.695,11.51807
9935.624,11.50681
9937.553,11.53757
9939.48,11.5744
9941.409,11.58193
9943.338,11.57971
9945.267,11.58941
9947.195,11.56886
9949.123,11.56303
9951.052,11.59073
9952.98,11.60084
9954.909,11.60382
9956.837,11.62945
9958.766,11.63931
9960.694,11.62715
9962.623,11.61424
9964.552,11.61833
9966.479,11.66379
9968.408,11.69113
9970.337,11.70113
9972.266,11.69001
9974.193,11.65955
9976.122,11.67449
9978.051,11.68493
9979.979,11.68471
9981.908,11.69368
9983.836,11.71254
9985.765,11.72232
9987.693,11.71307
9989.622,11.7062
9991.551,11.7313
9993.479,11.74758
9995.407,11.72041
9997.336,11.72848
9999.265,11.7418
10001.19,11.72127
10003.12,11.7284
10005.05,11.73255
10006.98,11.71823
10008.91,11.75053
10010.83,11.79286
10012.76,11.79017
10014.69,11.79393
10016.62,11.78583
10018.55,11.76512
10020.48,11.76414
10022.41,11.78037
10024.33,11.80572
10026.26,11.8047
10028.19,11.77889
10030.12,11.80406
10032.05,11.80586
10033.98,11.81294
10035.91,11.82226
10037.83,11.83831
10039.76,11.85178
10041.69,11.88738
10043.62,11.91052
10045.55,11.88565
10047.48,11.84713
10049.41,11.86355
10051.33,11.88795
10053.26,11.90041
10055.19,11.91683
10057.12,11.92096
10059.05,11.91957
10060.98,11.93309
10062.9,11.92904
10064.83,11.90672
10066.76,11.90704
10068.69,11.92758
10070.62,11.9342
10072.55,11.93829
10074.48,11.94545
10076.4,11.96641
10078.33,11.96175
10080.26,11.94326
10082.19,11.93391
10084.12,11.94473
10086.05,11.96437
10087.98,11.96322
10089.9,11.95486
10091.83,11.95588
10093.76,11.97398
10095.69,11.98051
10097.62,11.98369
10099.55,11.99322
10101.47,11.99638
10103.4,11.98148
10105.33,11.98203
10107.26,11.98207
10109.19,11.99261
10111.12,11.9712
10113.05,11.96344
10114.97,11.98283
10116.9,11.99485
10118.83,11.98901
10120.76,12.00685
10122.69,12.02839
10124.62,12.0256
10126.54,12.03425
10128.47,12.01904
10130.4,12.01085
10132.33,12.00563
10134.26,12.01808
10136.19,12.01674
10138.12,12.03071
10140.04,12.03189
10141.97,12.02902
10143.9,12.04059
10145.83,12.02204
10147.76,12.01564
10149.69,12.03408
10151.62,12.04524
10153.54,12.04146
10155.47,12.03057
10157.4,12.05471
10159.33,12.04331
10161.26,12.02761
10163.19,12.05713
10165.12,12.08102
10167.04,12.0533
10168.97,12.03907
10170.9,12.05803
10172.83,12.06773
10174.76,12.05503
10176.69,12.03971
10178.61,12.03448
10180.54,12.0294
10182.47,12.07146
10184.4,12.08427
10186.33,12.08845
10188.26,12.07672
10190.19,12.06176
10192.11,12.04418
10194.04,12.06657
10195.97,12.09658
10197.9,12.078
10199.83,12.04706
10201.76,12.05063
10203.69,12.06202
10205.61,12.07672
10207.54,12.08237
10209.47,12.09027
10211.4,12.09813
10213.33,12.04917
10215.26,12.05712
10217.18,12.0892
10219.11,12.10856
10221.04,12.15596
10222.97,12.11778
10224.9,12.08575
10226.83,12.08529
10228.76,12.09056
10230.68,12.07735
10232.61,12.06603
10234.54,12.06876
10236.47,12.08019
10238.4,12.06405
10240.33,12.05602
10242.25,12.06875
10244.18,12.0386
10246.11,12.04269
10248.04,12.04475
10249.97,12.06016
10251.9,12.06283
10253.83,12.09722
10255.75,12.07482
10257.68,12.02871
10259.61,12.04749
10261.54,12.06891
10263.47,12.08404
10265.4,12.08032
10267.33,12.08976
10269.25,12.10667
10271.18,12.0999
10273.11,12.07207
10275.04,12.07122
10276.97,12.07482
10278.9,12.06384
10280.83,12.0553
10282.75,12.04443
10284.68,12.05881
10286.61,12.08367
10288.54,12.0624
10290.47,12.07578
10292.4,12.07929
10294.32,12.07993
10296.25,12.06068
10298.18,12.05812
10300.11,12.08228
10302.04,12.06112
10303.97,12.04995
10305.9,12.06093
10307.82,12.09997
10309.75,12.08315
10311.68,12.04813
10313.61,12.03448
10315.54,12.05492
10317.47,12.05232
10319.4,12.02821
10321.32,12.02692
10323.25,12.04772
10325.18,12.0427
10327.11,12.02807
10329.04,12.05087
10330.97,12.05161
10332.89,12.04702
10334.82,12.03438
10336.75,12.03198
10338.68,12.02584
10340.61,12.02786
10342.54,12.00734
10344.47,12.03014
10346.39,12.06336
10348.32,12.06321
10350.25,12.04239
10352.18,12.03901
10354.11,12.0351
10356.04,12.05485
10357.96,12.05096
10359.89,12.03961
10361.82,12.00175
10363.75,12.0313
10365.68,12.05403
10367.61,12.03675
10369.54,12.00461
10371.46,12.01344
10373.39,12.03207
10375.32,12.0346
10377.25,12.0486
10379.18,12.04724
10381.11,12.03763
10383.04,12.0574
10384.96,12.01825
10386.89,12.02949
10388.82,12.07139
10390.75,12.05255
10392.68,12.01003
10394.61,12.023
10396.54,12.02118
10398.46,12.01234
10400.39,11.99271
10402.32,12.01947
10404.25,12.02079
10406.18,12.03761
10408.11,12.03675
10410.03,12.02389
10411.96,11.97199
10413.89,11.97914
10415.82,12.00217
10417.75,12.0292
10419.68,12.03741
10421.61,12.00763
10423.53,12.02866
10425.46,12.03793
10427.39,12.02432
10429.32,11.98242
10431.25,11.97123
10433.18,11.95351
10435.1,11.98363
10437.03,11.98475
10438.96,11.95807
10440.89,11.94889
10442.82,11.98471
10444.75,11.98544
10446.68,11.96162
10448.6,11.95506
10450.53,11.92094
10452.46,11.89899
10454.39,11.92984
10456.32,11.94304
10458.25,11.92986
10460.18,11.92526
10462.1,11.89804
10464.03,11.92136
10465.96,11.90257
10467.89,11.88253
10469.82,11.87488
10471.75,11.88188
10473.67,11.87882
10475.6,11.88993
10477.53,11.91144
10479.46,11.89321
10481.39,11.87666
10483.32,11.89828
10485.25,11.87777
10487.17,11.83755
10489.1,11.7941
10491.03,11.82391
10492.96,11.85775
10494.89,11.83333
10496.82,11.80171
10498.75,11.82908
10500.67,11.82068
10502.6,11.78743
10504.53,11.7917
10506.46,11.8152
10508.39,11.76536
10510.32,11.76973
10512.25,11.77656
10514.17,11.76992
10516.1,11.72451
10518.03,11.70957
10519.96,11.72206
10521.89,11.69614
10523.82,11.65893
10525.74,11.64709
10527.67,11.62555
10529.6,11.63254
10531.53,11.64494
10533.46,11.65417
10535.39,11.61609
10537.32,11.59478
10539.24,11.57847
10541.17,11.55365
10543.1,11.56527
10545.03,11.56501
10546.96,11.54235
10548.89,11.52879
10550.81,11.49271
10552.74,11.50112
10554.67,11.50163
10556.6,11.45575
10558.53,11.44842
10560.46,11.41764
10562.39,11.40742
10564.31,11.40834
10566.24,11.37675
10568.17,11.34264
10570.1,11.32477
10572.03,11.32425
10573.96,11.27861
10575.89,11.25093
10577.81,11.18808
10579.74,11.17011
10581.67,11.1969
10583.6,11.16778
10585.53,11.11789
10587.46,11.12192
10589.38,11.0822
10591.31,11.03974
10593.24,11.05992
10595.17,11.0741
10597.1,11.00502
10599.03,10.94
10600.96,10.92121
10602.88,10.92426
10604.81,10.90113
10606.74,10.88021
10608.67,10.84569
10610.6,10.81784
10612.53,10.75505
10614.46,10.70727
10616.38,10.71163
10618.31,10.70529
10620.24,10.65777
10622.17,10.64155
10624.1,10.59595
10626.03,10.58247
10627.96,10.58013
10629.88,10.5241
10631.81,10.4639
10633.74,10.4175
10635.67,10.36203
10637.6,10.34414
10639.53,10.3603
10641.45,10.32644
10643.38,10.27363
10645.31,10.24924
10647.24,10.21677
10649.17,10.15503
10651.1,10.07
10653.03,10.07968
10654.95,10.11864
10656.88,10.06251
10658.81,10.00565
10660.74,9.971524
10662.67,9.940172
10664.6,9.90884
10666.52,9.903485
10668.45,9.860596
10670.38,9.83567
10672.31,9.786644
10674.24,9.735021
10676.17,9.715908
10678.1,9.717491
10680.02,9.736652
10681.95,9.72468
10683.88,9.671121
10685.81,9.618584
10687.74,9.570457
10689.67,9.536522
10691.59,9.565267
10693.52,9.578039
10695.45,9.53089
10697.38,9.478725
10699.31,9.479542
10701.24,9.504565
10703.17,9.501489
10705.09,9.49477
10707.02,9.45206
10708.95,9.489268
10710.88,9.522627
10712.81,9.436599
10714.74,9.40118
10716.67,9.392062
10718.59,9.418733
10720.52,9.40123
10722.45,9.403563
10724.38,9.440025
10726.31,9.424572
10728.24,9.385669
10730.17,9.412802
10732.09,9.436085
10734.02,9.450983
10735.95,9.43519
10737.88,9.435654
10739.81,9.457191
10741.74,9.478466
10743.67,9.469656
10745.59,9.425009
10747.52,9.465306
10749.45,9.521818
10751.38,9.50956
10753.31,9.487579
10755.24,9.507176
10757.16,9.531376
10759.09,9.544106
10761.02,9.55951
10762.95,9.599211
10764.88,9.647091
10766.81,9.651034
10768.74,9.600596
10770.66,9.613908
10772.59,9.676559
10774.52,9.732496
10776.45,9.782664
10778.38,9.776821
10780.31,9.772393
10782.23,9.817612
10784.16,9.847096
10786.09,9.836383
10788.02,9.826719
10789.95,9.841631
10791.88,9.844469
10793.81,9.868296
10795.73,9.9374
10797.66,9.957103
10799.59,9.982545
10801.52,10.05998
10803.45,10.03682
10805.38,10.01599
10807.3,10.09954
10809.23,10.1415
10811.16,10.16523
10813.09,10.14194
10815.02,10.1679
10816.95,10.21694
10818.88,10.22263
10820.8,10.21911
10822.73,10.23859
10824.66,10.28104
10826.59,10.28933
10828.52,10.30261
10830.45,10.36875
10832.38,10.42179
10834.3,10.45627
10836.23,10.51333
10838.16,10.51755
10840.09,10.48269
10842.02,10.53944
10843.95,10.57755
10845.88,10.58734
10847.8,10.59804
10849.73,10.62857
10851.66,10.67206
10853.59,10.70202
10855.52,10.68515
10857.45,10.67483
10859.38,10.74645
10861.3,10.81452
10863.23,10.83746
10865.16,10.87471
10867.09,10.89226
10869.02,10.90871
10870.95,10.93809
10872.87,10.93122
10874.8,10.92264
10876.73,11.00126
10878.66,11.06505
10880.59,11.06341
10882.52,11.0627
10884.45,11.09292
10886.37,11.12968
10888.3,11.13282
10890.23,11.12469
10892.16,11.23151
10894.09,11.22784
10896.02,11.18849
10897.94,11.23798
10899.87,11.29305
10901.8,11.30518
10903.73,11.27374
10905.66,11.30739
10907.59,11.36674
10909.52,11.37486
10911.44,11.38131
10913.37,11.44098
10915.3,11.48516
10917.23,11.46333
10919.16,11.47349
10921.09,11.46373
10923.01,11.53026
10924.94,11.58255
10926.87,11.56886
10928.8,11.54813
10930.73,11.55032
10932.66,11.5746
10934.59,11.6466
10936.51,11.68541
10938.44,11.66457
10940.37,11.63023
10942.3,11.6612
10944.23,11.74594
10946.16,11.71265
10948.09,11.71347
10950.01,11.78759
10951.94,11.79264
10953.87,11.78681
10955.8,11.8021
10957.73,11.85727
10959.66,11.86705
10961.58,11.88808
10963.51,11.98392
10965.44,11.96743
10967.37,11.94431
10969.3,11.99426
10971.23,12.06738
10973.16,12.0334
10975.08,11.96143
10977.01,11.96592
10978.94,11.99475
10980.87,12.05973
10982.8,12.11171
10984.73,12.06604
10986.66,12.04716
10988.58,12.08596
10990.51,12.12292
10992.44,12.14396
10994.37,12.12748
10996.3,12.14185
10998.23,12.13959
11000.16,12.15341
11002.08,12.19738
11004.01,12.19109
11005.94,12.17571
11007.87,12.19878
11009.8,12.26057
11011.73,12.32522
11013.65,12.34317
11015.58,12.3154
11017.51,12.29391
11019.44,12.28949
11021.37,12.29667
11023.3,12.30809
11025.23,12.2933
11027.15,12.29805
11029.08,12.31875
11031.01,12.38509
11032.94,12.36416
11034.87,12.2995
11036.8,12.3054
11038.72,12.33692
11040.65,12.3709
11042.58,12.41563
11044.51,12.41708
11046.44,12.41826
11048.37,12.3954
11050.3,12.3986
11052.22,12.3866
11054.15,12.42703
11056.08,12.46847
11058.01,12.46397
11059.94,12.47327
11061.87,12.53299
11063.79,12.53775
11065.72,12.47004
11067.65,12.49278
11069.58,12.53053
11071.51,12.54255
11073.44,12.57106
11075.37,12.58122
11077.29,12.55764
11079.22,12.59468
11081.15,12.61941
11083.08,12.58878
11085.01,12.54185
11086.94,12.51539
11088.87,12.56222
11090.79,12.54243
11092.72,12.53928
11094.65,12.50385
11096.58,12.53643
11098.51,12.5951
11100.44,12.5492
11102.37,12.57033
11104.29,12.58595
11106.22,12.62401
11108.15,12.63219
11110.08,12.54809
11112.01,12.46438
11113.94,12.48873
11115.87,12.59491
11117.79,12.61666
11119.72,12.58884
11121.65,12.55929
11123.58,12.59558
11125.51,12.66248
11127.44,12.69674
11129.36,12.59655
11131.29,12.53564
11133.22,12.56866
11135.15,12.62824
11137.08,12.65072
11139.01,12.54966
11140.94,12.57727
11142.86,12.6876
11144.79,12.68601
11146.72,12.64952
11148.65,12.65742
11150.58,12.70152
11152.51,12.66411
11154.43,12.67589
11156.36,12.72552
11158.29,12.73177
11160.22,12.75073
11162.15,12.776
11164.08,12.82555
11166.01,12.78552
11167.93,12.71786
11169.86,12.71615
11171.79,12.71171
11173.72,12.75254
11175.65,12.77269
11177.58,12.82541
11179.5,12.81884
11181.43,12.76524
11183.36,12.80137
11185.29,12.79997
11187.22,12.82266
11189.15,12.87268
11191.08,12.85448
11193.0,12.87098
11194.93,12.85293
11196.86,12.85972
11198.79,12.90163
11200.72,12.82359
11202.65,12.8025
11204.58,12.8795
11206.5,12.90445
11208.43,12.98814
11210.36,12.97446
11212.29,12.98497
11214.22,13.00591
11216.15,12.99653
11218.08,12.99433
11220.0,12.95932
11221.93,12.9579
11223.86,12.9671
11225.79,12.97797
11227.72,13.01304
11229.65,12.98709
11231.58,12.97312
11233.5,13.00679
11235.43,13.04478
11237.36,12.97694
11239.29,12.97991
11241.22,13.03419
11243.15,13.03544
11245.07,13.05155
11247.0,13.13013
11248.93,13.095
11250.86,13.0914
11252.79,13.1438
11254.72,13.16338
11256.65,13.21305
11258.57,13.19677
11260.5,13.15793
11262.43,13.14123
11264.36,13.11218
11266.29,13.11732
11268.22,13.15701
11270.14,13.14363
11272.07,13.10678
11274.0,13.11778
11275.93,13.15267
11277.86,13.20393
11279.79,13.19319
11281.72,13.26479
11283.64,13.2199
11285.57,13.14225
11287.5,13.15019
11289.43,13.20513
11291.36,13.20236
11293.29,13.15428
11295.21,13.12707
11297.14,13.15463
11299.07,13.19925
11301.0,13.23415
11302.93,13.21633
11304.86,13.20939
11306.79,13.2615
11308.71,13.25981
11310.64,13.24662
11312.57,13.27653
11314.5,13.26428
11316.43,13.26395
11318.36,13.24552
11320.29,13.25732
11322.21,13.24563
11324.14,13.20025
11326.07,13.197
11328.0,13.31396
11329.93,13.35132
11331.86,13.30797
11333.79,13.33008
11335.71,13.38661
11337.64,13.36457
11339.57,13.3241
11341.5,13.28453
11343.43,13.31577
11345.36,13.34973
11347.28,13.41308
11349.21,13.41493
11351.14,13.40464
11353.07,13.43125
11355.0,13.36948
11356.93,13.36041
11358.86,13.39913
11360.78,13.34441
11362.71,13.34656
11364.64,13.3839
11366.57,13.41294
11368.5,13.29783
11370.43,13.32062
11372.36,13.35527
11374.28,13.30549
11376.21,13.37499
11378.14,13.42303
11380.07,13.41649
11382.0,13.37774
11383.93,13.3285
11385.85,13.33481
11387.78,13.35231
11389.71,13.35702
11391.64,13.36826
11393.57,13.45288
11395.5,13.53596
11397.43,13.49457
11399.35,13.48553
11401.28,13.42173
11403.21,13.38219
11405.14,13.39204
11407.07,13.41722
11409.0,13.51386
11410.92,13.51894
11412.85,13.53513
11414.78,13.49801
11416.71,13.48564
11418.64,13.5045
11420.57,13.48176
11422.5,13.41294
11424.42,13.43726
11426.35,13.5132
11428.28,13.60026
11430.21,13.58091
11432.14,13.49115
11434.07,13.47257
11436.0,13.53158
11437.92,13.54171
11439.85,13.57027
11441.78,13.47447
11443.71,13.4014
11445.64,13.35448
11447.57,13.38007
11449.5,13.5053
11451.42,13.59984
11453.35,13.5584
11455.28,13.49459
11457.21,13.53417
11459.14,13.61682
11461.07,13.54018
11462.99,13.57104
11464.92,13.64711
11466.85,13.6217
11468.78,13.56143
11470.71,13.54063
11472.64,13.57756
11474.57,13.62098
11476.49,13.6026
11478.42,13.67038
11480.35,13.65326
11482.28,13.55787
11484.21,13.53582
11486.14,13.56526
11488.07,13.5887
11489.99,13.63751
11491.92,13.69225
11493.85,13.72959
11495.78,13.63882
11497.71,13.63103
11499.64,13.76533
11501.56,13.77531
11503.49,13.72283
11505.42,13.66764
11507.35,13.60972
11509.28,13.64434
11511.21,13.63544
11513.14,13.71605
11515.06,13.73257
11516.99,13.69697
11518.92,13.66087
11520.85,13.62402
11522.78,13.59099
11524.71,13.6272
11526.63,13.73638
11528.56,13.72976
11530.49,13.76957
11532.42,13.73338
11534.35,13.7092
11536.28,13.71133
11538.21,13.69943
11540.13,13.6291
11542.06,13.63213
11543.99,13.63343
11545.92,13.58183
11547.85,13.64776
11549.78,13.6902
11551.71,13.68496
11553.63,13.70386
11555.56,13.66121
11557.49,13.68895
11559.42,13.75913
11561.35,13.77435
11563.28,13.71158
11565.21,13.65159
11567.13,13.71279
11569.06,13.78906
11570.99,13.83716
11572.92,13.71861
11574.85,13.59844
11576.78,13.71577
11578.7,13.81634
11580.63,13.79413
11582.56,13.80866
11584.49,13.83992
11586.42,13.85948
11588.35,13.8411
11590.28,13.81832
11592.2,13.78564
11594.13,13.80355
11596.06,13.87601
11597.99,13.85119
11599.92,13.79844
11601.85,13.94098
11603.78,13.95195
11605.7,13.80171
11607.63,13.72423
11609.56,13.79339
11611.49,13.85309
11613.42,13.82683
11615.35,13.67567
11617.27,13.6241
11619.2,13.74314
11621.13,13.75622
11623.06,13.81914
11624.99,13.88778
11626.92,13.87856
11628.85,13.81234
11630.77,13.79238
11632.7,13.82526
11634.63,13.84428
11636.56,13.91281
11638.49,13.84847
11640.42,13.88185
11642.34,13.86006
11644.27,13.82516
11646.2,13.79209
11648.13,13.88002
11650.06,13.98476
11651.99,13.89535
11653.92,13.79862
11655.84,13.79562
11657.77,13.93995
11659.7,14.0048
11661.63,13.86908
11663.56,13.7405
11665.49,13.74784
11667.42,13.80888
11669.34,13.88375
11671.27,13.96648
11673.2,14.00537
11675.13,13.9184
11677.06,13.87753
11678.99,13.97512
11680.92,13.91474
11682.84,13.83937
11684.77,13.83009
11686.7,13.87533
11688.63,13.81111
11690.56,13.85987
11692.49,13.83954
11694.41,13.88211
11696.34,13.84568
11698.27,13.73551
11700.2,13.79635
11702.13,13.87964
11704.06,13.89909
11705.99,13.95358
11707.91,13.77272
11709.84,13.68588
11711.77,13.83176
11713.7,13.94069
11715.63,13.94273
11717.56,13.93853
11719.48,13.91108
11721.41,13.84937
11723.34,13.90401
11725.27,13.99602
11727.2,13.94139
11729.13,13.84059
11731.06,13.89312
11732.98,13.87027
11734.91,13.82996
11736.84,13.83327
11738.77,13.9466
11740.7,13.93127
11742.63,13.98062
11744.56,14.03659
11746.48,13.89448
11748.41,13.80161
11750.34,13.823
11752.27,13.91481
11754.2,14.02147
11756.13,14.048
11758.05,13.88732
11759.98,13.872
11761.91,13.98422
11763.84,14.04438
11765.77,14.0135
11767.7,13.97955
11769.63,13.95514
11771.55,14.01159
11773.48,14.02389
11775.41,13.9178
11777.34,13.92791
11779.27,13.9268
11781.2,13.89014
11783.13,13.85086
11785.05,13.85653
11786.98,13.78236
11788.91,13.8753
11790.84,13.87603
11792.77,13.94252
11794.7,13.90825
11796.63,13.78612
11798.55,13.84516
11800.48,13.84941
11802.41,13.81235
11804.34,13.82374
11806.27,13.84665
11808.2,13.86992
11810.12,13.83225
11812.05,13.80438
11813.98,13.84605
11815.91,13.9206
11817.84,13.95028
11819.77,13.88135
11821.7,13.82673
11823.62,13.76416
11825.55,13.62747
11827.48,13.74401
11829.41,13.7897
11831.34,13.82148
11833.27,14.02398
11835.19,14.08473
11837.12,13.95008
11839.05,13.93755
11840.98,13.99537
11842.91,14.00699
11844.84,13.91787
11846.77,13.68958
11848.69,13.3845
11850.62,13.75582
11852.55,13.98334
11854.48,13.82291
11856.41,13.836
11858.34,14.00091
11860.27,14.00426
11862.19,13.92085
11864.12,14.00581
11866.05,14.02712
11867.98,13.96873
11869.91,13.84821
11871.84,13.77226
11873.76,13.82793
11875.69,13.7925
11877.62,13.90777
11879.55,13.95416
11881.48,13.96192
11883.41,13.88406
11885.34,13.85584
11887.26,13.85903
11889.19,13.89601
11891.12,13.94851
11893.05,13.8075
11894.98,13.84606
11896.91,13.8916
11898.83,13.87976
11900.76,13.93721
11902.69,13.92109
11904.62,13.93911
11906.55,14.02652
11908.48,13.96747
11910.41,13.81533
11912.33,13.68448
11914.26,13.68087
11916.19,13.83036
11918.12,13.97813
11920.05,13.93971
11921.98,13.91588
11923.91,13.92159
11925.83,13.95959
11927.76,14.04863
11929.69,13.99403
11931.62,13.8608
11933.55,13.96039
11935.48,14.01473
11937.41,13.93375
11939.33,13.87019
11941.26,13.89087
11943.19,13.91036
11945.12,14.00168
11947.05,13.95301
11948.98,13.96429
11950.9,13.84576
11952.83,13.92518
11954.76,13.9788
11956.69,13.94576
11958.62,13.94414
11960.55,13.89623
11962.48,13.78843
11964.4,13.92163
11966.33,14.00515
11968.26,13.91231
11970.19,13.83466
11972.12,13.73845
11974.05,13.75383
11975.98,13.73964
11977.9,13.84897
11979.83,13.97603
11981.76,13.93204
11983.69,13.79665
11985.62,13.79996
11987.55,13.97822
11989.47,13.91674
11991.4,13.69553
11993.33,13.73182
11995.26,13.87712
11997.19,13.97289
11999.12,13.99816
