Wavenumber,Intensity
3999.706,3.273554
4001.634,3.277749
4003.563,3.280841
4005.491,3.280706
4007.42,3.281434
4009.348,3.284079
4011.277,3.284856
4013.205,3.288016
4015.134,3.287817
4017.062,3.290642
4018.991,3.291297
4020.919,3.285619
4022.848,3.285366
4024.776,3.290463
4026.705,3.294872
4028.633,3.295314
4030.562,3.293762
4032.49,3.296241
4034.419,3.301167
4036.347,3.30162
4038.276,3.296996
4040.204,3.297767
4042.133,3.302906
4044.061,3.30325
4045.99,3.30224
4047.918,3.303382
4049.847,3.304242
4051.775,3.307615
4053.704,3.307385
4055.632,3.308678
4057.561,3.309423
4059.489,3.306786
4061.418,3.30452
4063.346,3.308179
4065.275,3.314425
4067.203,3.314691
4069.132,3.311106
4071.06,3.311001
4072.989,3.314635
4074.917,3.318413
4076.846,3.320978
4078.774,3.319201
4080.703,3.321619
4082.631,3.321361
4084.56,3.322724
4086.488,3.325538
4088.417,3.324787
4090.345,3.324858
4092.274,3.323837
4094.202,3.32391
4096.131,3.322942
4098.059,3.322405
4099.988,3.323928
4101.916,3.327423
4103.845,3.33093
4105.773,3.329325
4107.702,3.329476
4109.63,3.329032
4111.559,3.330095
4113.487,3.330477
4115.416,3.32829
4117.344,3.328999
4119.273,3.329074
4121.201,3.333318
4123.13,3.333535
4125.058,3.332449
4126.987,3.330637
4128.915,3.330494
4130.844,3.332203
4132.772,3.331081
4134.701,3.328657
4136.629,3.334395
4138.558,3.33571
4140.486,3.331096
4142.415,3.333913
4144.343,3.33673
4146.271,3.340063
4148.2,3.340957
4150.129,3.336918
4152.057,3.336965
4153.986,3.339813
4155.914,3.341633
4157.843,3.340582
4159.771,3.337376
4161.7,3.342934
4163.628,3.343925
4165.557,3.342586
4167.485,3.343408
4169.414,3.345046
4171.342,3.348015
4173.271,3.352239
4175.199,3.352937
4177.127,3.35272
4179.056,3.354834
4180.985,3.356406
4182.913,3.360755
4184.842,3.363154
4186.77,3.361938
4188.699,3.360375
4190.627,3.36306
4192.556,3.367793
4194.484,3.369877
4196.413,3.372357
4198.341,3.376725
4200.27,3.381252
4202.198,3.38598
4204.126,3.385033
4206.055,3.384632
4207.983,3.387253
4209.912,3.391541
4211.841,3.396702
4213.769,3.400238
4215.698,3.402199
4217.626,3.402726
4219.555,3.408121
4221.483,3.409826
4223.412,3.411081
4225.34,3.412836
4227.269,3.414863
4229.197,3.415316
4231.125,3.415006
4233.054,3.418833
4234.982,3.418376
4236.911,3.419729
4238.84,3.423271
4240.768,3.427888
4242.697,3.426244
4244.625,3.420667
4246.554,3.421785
4248.482,3.423352
4250.411,3.42578
4252.339,3.423452
4254.268,3.422711
4256.196,3.42439
4258.125,3.426955
4260.053,3.43056
4261.981,3.437518
4263.91,3.442428
4265.838,3.443784
4267.767,3.442724
4269.696,3.443804
4271.624,3.443623
4273.553,3.442897
4275.481,3.444717
4277.41,3.445388
4279.338,3.447722
4281.267,3.447557
4283.195,3.445608
4285.124,3.448007
4287.052,3.453053
4288.98,3.456084
4290.909,3.455653
4292.837,3.455395
4294.766,3.456726
4296.694,3.457973
4298.623,3.459177
4300.552,3.460201
4302.48,3.460153
4304.409,3.458632
4306.337,3.459091
4308.266,3.456696
4310.194,3.45313
4312.123,3.454926
4314.051,3.456151
4315.979,3.450756
4317.908,3.447967
4319.836,3.445051
4321.765,3.444276
4323.693,3.442706
4325.622,3.443406
4327.551,3.444184
4329.479,3.444245
4331.408,3.449306
4333.336,3.451541
4335.265,3.450156
4337.193,3.449214
4339.122,3.451844
4341.05,3.454839
4342.979,3.455912
4344.907,3.455281
4346.835,3.456657
4348.764,3.4638
4350.692,3.466502
4352.621,3.462823
4354.549,3.461819
4356.478,3.462962
4358.407,3.467921
4360.335,3.470136
4362.264,3.468252
4364.192,3.470442
4366.121,3.468258
4368.049,3.468287
4369.978,3.468594
4371.906,3.469223
4373.834,3.471346
4375.763,3.473349
4377.691,3.471521
4379.62,3.471174
4381.548,3.474627
4383.477,3.474857
4385.405,3.473462
4387.334,3.475178
4389.263,3.479472
4391.191,3.479686
4393.12,3.48123
4395.048,3.483235
4396.977,3.484612
4398.905,3.487137
4400.833,3.491499
4402.762,3.498162
4404.69,3.500567
4406.619,3.50805
4408.547,3.509617
4410.476,3.514282
4412.404,3.523655
4414.333,3.534012
4416.262,3.541636
4418.19,3.552847
4420.119,3.562294
4422.047,3.57318
4423.976,3.586581
4425.904,3.599947
4427.833,3.610508
4429.761,3.619256
4431.689,3.629765
4433.618,3.643183
4435.546,3.658847
4437.475,3.671569
4439.403,3.682789
4441.332,3.697087
4443.26,3.713726
4445.189,3.729674
4447.117,3.745677
4449.046,3.762098
4450.975,3.781349
4452.903,3.798236
4454.832,3.814802
4456.76,3.83446
4458.688,3.849544
4460.617,3.864985
4462.545,3.883325
4464.474,3.89889
4466.402,3.916361
4468.331,3.933414
4470.259,3.950437
4472.188,3.962667
4474.116,3.97575
4476.045,3.995255
4477.974,4.013075
4479.902,4.02773
4481.831,4.041043
4483.759,4.055308
4485.688,4.071547
4487.616,4.086291
4489.544,4.097704
4491.473,4.113947
4493.401,4.133769
4495.33,4.152318
4497.258,4.166086
4499.187,4.180571
4501.115,4.200316
4503.044,4.219735
4504.972,4.234334
4506.901,4.249032
4508.83,4.26623
4510.758,4.289473
4512.687,4.310694
4514.615,4.32676
4516.543,4.340468
4518.472,4.354317
4520.4,4.371944
4522.329,4.392653
4524.257,4.412023
4526.186,4.427966
4528.114,4.444559
4530.043,4.462667
4531.971,4.481184
4533.9,4.497889
4535.828,4.51601
4537.757,4.536803
4539.686,4.554587
4541.614,4.569701
4543.542,4.592542
4545.471,4.610963
4547.399,4.629767
4549.328,4.651801
4551.256,4.671779
4553.185,4.689948
4555.113,4.708816
4557.042,4.729931
4558.97,4.752138
4560.899,4.772328
4562.827,4.788815
4564.756,4.808509
4566.685,4.824186
4568.613,4.840072
4570.542,4.853348
4572.47,4.869516
4574.398,4.887111
4576.327,4.90109
4578.255,4.914489
4580.184,4.926277
4582.112,4.936778
4584.041,4.949948
4585.969,4.96137
4587.898,4.973048
4589.826,4.984346
4591.755,4.996706
4593.683,5.00781
4595.612,5.014771
4597.54,5.022424
4599.469,5.032131
4601.397,5.045292
4603.326,5.052935
4605.254,5.059986
4607.183,5.064569
4609.111,5.069942
4611.04,5.077419
4612.968,5.081031
4614.897,5.087419
4616.825,5.096151
4618.754,5.104708
4620.682,5.114057
4622.611,5.124936
4624.539,5.134098
4626.468,5.141188
4628.396,5.149909
4630.325,5.155054
4632.253,5.159615
4634.182,5.164464
4636.11,5.168818
4638.039,5.173776
4639.967,5.178407
4641.896,5.177922
4643.824,5.180657
4645.753,5.18244
4647.681,5.180959
4649.61,5.178011
4651.538,5.173873
4653.467,5.168123
4655.396,5.160121
4657.324,5.149393
4659.252,5.135238
4661.181,5.116905
4663.109,5.102734
4665.038,5.095524
4666.966,5.092009
4668.895,5.098095
4670.823,5.111904
4672.752,5.127727
4674.68,5.147498
4676.609,5.173097
4678.537,5.191901
4680.466,5.208021
4682.394,5.224421
4684.323,5.236004
4686.251,5.245235
4688.18,5.253808
4690.108,5.259302
4692.037,5.264287
4693.965,5.262998
4695.894,5.263909
4697.822,5.271649
4699.751,5.271918
4701.679,5.270014
4703.608,5.27135
4705.536,5.27269
4707.465,5.271461
4709.393,5.268191
4711.322,5.267399
4713.25,5.263565
4715.179,5.257488
4717.107,5.252411
4719.036,5.244325
4720.964,5.23618
4722.893,5.227665
4724.821,5.216496
4726.75,5.20777
4728.678,5.200968
4730.606,5.194469
4732.535,5.186224
4734.464,5.181991
4736.392,5.17801
4738.321,5.174336
4740.249,5.172644
4742.178,5.16858
4744.106,5.161501
4746.035,5.158343
4747.963,5.154349
4749.892,5.14958
4751.82,5.144694
4753.749,5.136429
4755.677,5.127961
4757.605,5.126559
4759.534,5.11948
4761.463,5.10709
4763.391,5.099918
4765.32,5.091004
4767.248,5.079831
4769.177,5.069513
4771.105,5.054438
4773.034,5.041243
4774.962,5.03171
4776.891,5.022426
4778.819,5.012239
4780.748,5.004371
4782.676,4.998749
4784.604,4.995194
4786.533,4.99823
4788.462,4.995872
4790.39,4.987576
4792.319,4.982212
4794.247,4.979227
4796.176,4.973779
4798.104,4.971437
4800.033,4.963604
4801.961,4.956193
4803.89,4.948831
4805.818,4.937962
4807.747,4.925992
4809.675,4.918738
4811.604,4.906831
4813.532,4.894352
4815.46,4.884939
4817.389,4.870565
4819.317,4.855032
4821.246,4.845682
4823.175,4.833413
4825.103,4.822806
4827.032,4.813772
4828.96,4.803193
4830.889,4.79553
4832.817,4.788239
4834.746,4.778547
4836.674,4.767997
4838.603,4.756551
4840.531,4.73775
4842.459,4.721741
4844.388,4.710613
4846.316,4.697186
4848.245,4.678791
4850.174,4.66295
4852.102,4.647992
4854.031,4.636335
4855.959,4.625885
4857.888,4.61016
4859.816,4.595519
4861.745,4.588613
4863.673,4.581155
4865.602,4.574817
4867.53,4.570681
4869.458,4.570482
4871.387,4.570727
4873.315,4.570063
4875.244,4.573232
4877.172,4.577667
4879.101,4.579523
4881.03,4.580318
4882.958,4.586422
4884.887,4.592774
4886.815,4.597673
4888.744,4.602249
4890.672,4.607602
4892.601,4.613224
4894.529,4.617047
4896.458,4.617338
4898.386,4.621759
4900.314,4.625501
4902.243,4.626968
4904.171,4.630276
4906.1,4.634727
4908.028,4.637207
4909.957,4.636869
4911.886,4.637646
4913.814,4.63865
4915.743,4.641675
4917.671,4.641869
4919.6,4.639008
4921.528,4.638051
4923.457,4.637852
4925.385,4.636022
4927.313,4.630743
4929.242,4.631338
4931.17,4.63285
4933.099,4.62898
4935.027,4.630687
4936.956,4.630672
4938.885,4.62601
4940.813,4.620199
4942.742,4.614466
4944.67,4.608886
4946.599,4.599916
4948.527,4.585496
4950.456,4.569527
4952.384,4.552248
4954.313,4.529801
4956.241,4.497472
4958.169,4.467146
4960.098,4.44396
4962.026,4.42642
4963.955,4.414976
4965.883,4.412229
4967.812,4.415861
4969.74,4.426268
4971.669,4.437772
4973.598,4.444357
4975.526,4.45155
4977.455,4.454158
4979.383,4.461468
4981.312,4.469219
4983.24,4.479658
4985.168,4.49286
4987.097,4.499787
4989.025,4.511978
4990.954,4.52681
4992.882,4.539464
4994.811,4.551541
4996.739,4.567408
4998.668,4.581473
5000.597,4.594739
5002.525,4.609672
5004.454,4.620789
5006.382,4.626608
5008.311,4.634953
5010.239,4.635629
5012.167,4.634863
5014.096,4.637383
5016.024,4.641982
5017.953,4.643257
5019.881,4.647096
5021.81,4.651727
5023.738,4.657242
5025.667,4.662853
5027.596,4.670003
5029.524,4.676667
5031.452,4.681573
5033.381,4.684551
5035.31,4.687177
5037.238,4.685905
5039.167,4.687204
5041.095,4.687824
5043.023,4.68829
5044.952,4.690901
5046.88,4.69093
5048.809,4.689297
5050.737,4.686342
5052.666,4.680768
5054.595,4.677452
5056.523,4.670062
5058.451,4.661089
5060.38,4.658998
5062.309,4.655009
5064.237,4.653362
5066.166,4.653636
5068.094,4.654415
5070.022,4.658104
5071.951,4.657879
5073.879,4.654938
5075.808,4.654515
5077.736,4.652108
5079.665,4.65003
5081.593,4.64649
5083.522,4.644536
5085.45,4.64146
5087.379,4.63575
5089.308,4.632626
5091.236,4.632252
5093.165,4.630545
5095.093,4.629924
5097.021,4.630889
5098.95,4.628737
5100.878,4.626235
5102.807,4.628975
5104.735,4.632176
5106.664,4.636569
5108.592,4.640326
5110.521,4.642364
5112.449,4.64518
5114.378,4.648202
5116.307,4.652034
5118.235,4.655097
5120.163,4.659868
5122.092,4.662764
5124.021,4.666891
5125.949,4.670047
5127.877,4.669731
5129.806,4.67167
5131.734,4.675452
5133.663,4.67686
5135.591,4.67417
5137.52,4.671101
5139.448,4.670883
5141.377,4.668092
5143.305,4.660234
5145.234,4.657445
5147.162,4.652826
5149.091,4.647933
5151.02,4.641619
5152.948,4.638136
5154.876,4.634622
5156.805,4.630172
5158.733,4.627418
5160.662,4.626069
5162.59,4.627138
5164.519,4.624427
5166.447,4.62633
5168.376,4.631492
5170.304,4.629779
5172.233,4.625586
5174.161,4.620808
5176.09,4.619987
5178.019,4.621798
5179.947,4.621121
5181.875,4.617558
5183.804,4.620432
5185.732,4.613564
5187.661,4.615008
5189.589,4.613619
5191.518,4.614429
5193.446,4.620727
5195.375,4.626261
5197.303,4.622529
5199.232,4.617685
5201.16,4.624261
5203.089,4.630167
5205.018,4.641668
5206.946,4.631729
5208.874,4.622048
5210.803,4.618968
5212.731,4.619567
5214.66,4.618905
5216.588,4.621515
5218.517,4.619586
5220.445,4.620062
5222.374,4.62777
5224.302,4.637053
5226.231,4.627013
5228.159,4.629439
5230.088,4.638425
5232.016,4.637438
5233.945,4.637311
5235.873,4.638111
5237.802,4.641896
5239.73,4.640123
5241.659,4.649117
5243.587,4.65587
5245.516,4.656602
5247.444,4.663921
5249.373,4.649361
5251.301,4.652784
5253.229,4.664753
5255.158,4.654805
5257.087,4.649275
5259.015,4.663542
5260.944,4.672431
5262.872,4.674573
5264.801,4.663018
5266.729,4.664646
5268.658,4.658895
5270.586,4.650961
5272.515,4.653805
5274.443,4.654063
5276.372,4.65044
5278.3,4.653687
5280.229,4.654956
5282.157,4.659419
5284.086,4.664228
5286.014,4.65723
5287.943,4.662592
5289.871,4.663512
5291.8,4.648697
5293.729,4.651053
5295.657,4.648809
5297.585,4.648707
5299.514,4.639172
5301.442,4.631593
5303.371,4.628996
5305.299,4.635067
5307.228,4.629551
5309.156,4.616859
5311.085,4.620917
5313.013,4.63042
5314.941,4.644588
5316.87,4.653995
5318.799,4.664256
5320.727,4.673515
5322.656,4.681352
5324.584,4.695139
5326.513,4.705518
5328.441,4.690459
5330.37,4.697066
5332.298,4.694198
5334.227,4.686285
5336.155,4.694902
5338.084,4.683705
5340.012,4.656727
5341.94,4.660697
5343.869,4.650681
5345.798,4.616835
5347.726,4.607231
5349.655,4.592613
5351.583,4.591607
5353.512,4.572357
5355.44,4.548254
5357.369,4.540182
5359.297,4.529717
5361.226,4.52465
5363.154,4.513317
5365.083,4.496001
5367.011,4.484755
5368.939,4.473764
5370.868,4.464183
5372.797,4.460455
5374.725,4.455884
5376.654,4.44
5378.582,4.424025
5380.511,4.422805
5382.439,4.420243
5384.368,4.417586
5386.296,4.397719
5388.225,4.387757
5390.153,4.384699
5392.082,4.382345
5394.01,4.366467
5395.938,4.34969
5397.867,4.33343
5399.796,4.324795
5401.724,4.317401
5403.652,4.304391
5405.581,4.28951
5407.51,4.282048
5409.438,4.268982
5411.367,4.25159
5413.295,4.231724
5415.224,4.200379
5417.152,4.189909
5419.081,4.177485
5421.009,4.16916
5422.938,4.159864
5424.866,4.155846
5426.795,4.161347
5428.723,4.15253
5430.651,4.136731
5432.58,4.142504
5434.509,4.133069
5436.437,4.117784
5438.366,4.122818
5440.294,4.124875
5442.223,4.113847
5444.151,4.117083
5446.08,4.104636
5448.008,4.102287
5449.937,4.098859
5451.865,4.094146
5453.793,4.092213
5455.722,4.091375
5457.65,4.087167
5459.579,4.087553
5461.508,4.076837
5463.436,4.075629
5465.365,4.07095
5467.293,4.064701
5469.222,4.057668
5471.15,4.052958
5473.079,4.057791
5475.007,4.046454
5476.936,4.023321
5478.864,4.025081
5480.792,4.021167
5482.721,4.013856
5484.649,4.006766
5486.578,4.003504
5488.507,4.000062
5490.435,4.001667
5492.363,4.002526
5494.292,3.990536
5496.221,3.990684
5498.149,3.994126
5500.078,3.9939
5502.006,3.997521
5503.935,4.002044
5505.863,4.005009
5507.792,4.003702
5509.72,4.003155
5511.648,4.008049
5513.577,4.011548
5515.505,4.01403
5517.434,4.011989
5519.362,4.013564
5521.291,4.015697
5523.22,4.016558
5525.148,4.015558
5527.077,4.013468
5529.005,4.010337
5530.934,4.008699
5532.862,4.009237
5534.791,4.012456
5536.719,4.012993
5538.647,4.008972
5540.576,4.005789
5542.504,4.002079
5544.433,3.999598
5546.361,3.999153
5548.29,3.999317
5550.219,3.997527
5552.147,3.996567
5554.076,3.995628
5556.004,3.99558
5557.933,3.999452
5559.861,4.004728
5561.79,4.009944
5563.718,4.014879
5565.646,4.02117
5567.575,4.028954
5569.503,4.034952
5571.432,4.042873
5573.36,4.051497
5575.289,4.059719
5577.218,4.071541
5579.146,4.079783
5581.074,4.087183
5583.003,4.094036
5584.932,4.102236
5586.86,4.109586
5588.789,4.112162
5590.717,4.110937
5592.646,4.109166
5594.574,4.105186
5596.502,4.099844
5598.431,4.095082
5600.359,4.090171
5602.288,4.083545
5604.216,4.069257
5606.145,4.058995
5608.073,4.047812
5610.002,4.033928
5611.931,4.023301
5613.859,4.015335
5615.788,4.006
5617.716,3.994983
5619.645,3.980729
5621.573,3.971375
5623.501,3.963282
5625.43,3.952172
5627.358,3.942826
5629.287,3.932737
5631.215,3.923057
5633.144,3.914781
5635.072,3.904674
5637.001,3.892604
5638.93,3.881191
5640.858,3.869818
5642.786,3.854468
5644.715,3.837995
5646.644,3.818725
5648.572,3.795943
5650.5,3.776736
5652.429,3.757611
5654.357,3.737538
5656.286,3.723707
5658.214,3.710147
5660.143,3.701424
5662.071,3.698056
5664.0,3.699015
5665.929,3.700828
5667.857,3.704119
5669.785,3.707752
5671.714,3.715147
5673.643,3.723227
5675.571,3.730989
5677.5,3.74294
5679.428,3.75153
5681.356,3.757454
5683.285,3.763961
5685.213,3.773214
5687.142,3.782548
5689.07,3.788506
5690.999,3.797618
5692.927,3.807629
5694.856,3.820496
5696.784,3.833097
5698.713,3.846302
5700.642,3.860953
5702.57,3.875282
5704.499,3.890656
5706.427,3.904582
5708.355,3.915613
5710.284,3.925388
5712.212,3.934608
5714.141,3.939761
5716.069,3.940234
5717.998,3.940916
5719.926,3.937238
5721.855,3.923656
5723.783,3.903006
5725.712,3.879342
5727.641,3.850564
5729.569,3.828047
5731.497,3.814387
5733.426,3.807444
5735.354,3.804373
5737.283,3.798682
5739.211,3.790667
5741.14,3.78158
5743.068,3.767441
5744.997,3.754262
5746.925,3.740441
5748.854,3.730128
5750.782,3.71987
5752.711,3.710977
5754.639,3.701445
5756.568,3.694418
5758.496,3.689121
5760.425,3.684217
5762.354,3.676999
5764.282,3.674921
5766.21,3.66971
5768.139,3.663715
5770.067,3.663134
5771.996,3.663033
5773.924,3.661579
5775.853,3.660579
5777.781,3.661454
5779.71,3.665321
5781.638,3.666483
5783.567,3.664833
5785.495,3.66726
5787.424,3.670275
5789.353,3.673643
5791.281,3.679015
5793.209,3.679444
5795.138,3.679135
5797.066,3.681661
5798.995,3.683416
5800.923,3.684453
5802.852,3.690167
5804.78,3.692842
5806.709,3.695266
5808.637,3.700596
5810.566,3.70295
5812.494,3.707694
5814.423,3.713006
5816.352,3.71886
5818.28,3.723135
5820.208,3.726729
5822.137,3.733616
5824.065,3.742025
5825.994,3.74525
5827.922,3.756341
5829.851,3.766084
5831.779,3.773242
5833.708,3.78074
5835.636,3.792833
5837.565,3.805479
5839.493,3.815089
5841.422,3.827297
5843.35,3.845329
5845.279,3.86118
5847.207,3.880447
5849.136,3.906658
5851.064,3.932679
5852.993,3.958527
5854.921,3.986513
5856.85,4.018897
5858.778,4.055404
5860.707,4.096385
5862.635,4.139521
5864.563,4.18859
5866.492,4.241501
5868.421,4.295422
5870.349,4.35252
5872.278,4.412031
5874.206,4.475812
5876.135,4.543791
5878.063,4.613276
5879.992,4.682071
5881.92,4.752228
5883.849,4.819009
5885.777,4.886772
5887.706,4.953776
5889.634,5.012731
5891.563,5.065715
5893.491,5.109566
5895.42,5.151477
5897.348,5.189174
5899.277,5.222855
5901.205,5.257472
5903.134,5.294795
5905.063,5.335001
5906.991,5.37535
5908.919,5.42607
5910.848,5.485478
5912.776,5.54809
5914.705,5.619336
5916.633,5.694168
5918.562,5.774817
5920.49,5.861327
5922.419,5.951173
5924.347,6.04225
5926.276,6.128556
5928.204,6.214875
5930.133,6.296988
5932.061,6.380934
5933.99,6.461838
5935.918,6.53776
5937.847,6.609436
5939.775,6.679432
5941.704,6.744653
5943.632,6.807204
5945.561,6.868581
5947.489,6.927089
5949.418,6.98115
5951.346,7.036229
5953.274,7.091795
5955.203,7.147679
5957.132,7.201197
5959.06,7.257561
5960.989,7.313157
5962.917,7.371338
5964.846,7.427269
5966.774,7.486744
5968.703,7.54358
5970.631,7.601819
5972.56,7.654618
5974.488,7.707237
5976.417,7.756025
5978.345,7.806477
5980.273,7.854676
5982.202,7.900267
5984.131,7.945292
5986.059,7.988414
5987.988,8.030157
5989.916,8.076233
5991.845,8.119568
5993.773,8.15836
5995.702,8.198635
5997.63,8.23727
5999.559,8.275522
6001.487,8.310229
6003.416,8.344008
6005.344,8.382152
6007.272,8.420705
6009.201,8.457047
6011.13,8.49161
6013.058,8.527219
6014.986,8.562308
6016.915,8.596052
6018.844,8.628013
6020.772,8.660631
6022.701,8.693502
6024.629,8.727705
6026.558,8.752262
6028.486,8.777787
6030.415,8.805168
6032.343,8.834604
6034.271,8.85873
6036.2,8.885088
6038.129,8.911499
6040.057,8.936448
6041.985,8.95751
6043.914,8.983639
6045.843,9.004066
6047.771,9.025647
6049.7,9.045056
6051.628,9.070642
6053.557,9.08872
6055.485,9.107669
6057.414,9.126284
6059.342,9.144439
6061.271,9.160884
6063.199,9.182287
6065.128,9.196238
6067.056,9.209225
6068.984,9.226822
6070.913,9.244084
6072.842,9.256351
6074.77,9.271749
6076.698,9.285595
6078.627,9.299164
6080.556,9.313609
6082.484,9.329065
6084.413,9.340104
6086.341,9.352107
6088.27,9.363275
6090.198,9.373974
6092.126,9.386031
6094.055,9.394269
6095.983,9.398392
6097.912,9.407171
6099.841,9.41484
6101.769,9.423013
6103.697,9.433489
6105.626,9.450939
6107.555,9.459373
6109.483,9.466567
6111.412,9.473938
6113.34,9.482265
6115.269,9.488598
6117.197,9.49665
6119.125,9.507056
6121.054,9.520411
6122.982,9.533616
6124.911,9.547759
6126.84,9.562541
6128.768,9.575849
6130.696,9.589633
6132.625,9.606268
6134.554,9.620513
6136.482,9.637174
6138.41,9.648864
6140.339,9.659619
6142.268,9.672304
6144.196,9.687648
6146.125,9.699622
6148.053,9.710877
6149.981,9.721826
6151.91,9.737985
6153.839,9.752328
6155.767,9.764979
6157.695,9.781223
6159.624,9.795477
6161.553,9.807167
6163.481,9.821805
6165.409,9.830969
6167.338,9.845053
6169.267,9.861751
6171.195,9.875175
6173.124,9.885309
6175.052,9.901086
6176.98,9.913075
6178.909,9.924314
6180.837,9.93359
6182.766,9.943665
6184.694,9.956564
6186.623,9.96654
6188.552,9.972251
6190.48,9.979252
6192.408,9.986467
6194.337,9.991788
6196.266,10.00114
6198.194,10.01787
6200.123,10.02511
6202.051,10.03604
6203.979,10.04093
6205.908,10.04481
6207.836,10.05214
6209.765,10.06275
6211.693,10.06743
6213.622,10.07656
6215.551,10.08365
6217.479,10.08915
6219.407,10.09179
6221.336,10.09608
6223.265,10.1031
6225.193,10.10751
6227.121,10.11346
6229.05,10.12369
6230.979,10.12703
6232.907,10.1306
6234.835,10.13776
6236.764,10.14346
6238.692,10.14485
6240.621,10.14768
6242.549,10.14772
6244.478,10.15089
6246.406,10.15025
6248.335,10.1587
6250.264,10.1605
6252.192,10.15961
6254.12,10.16232
6256.049,10.16493
6257.978,10.16662
6259.906,10.17427
6261.834,10.17623
6263.763,10.17387
6265.691,10.17463
6267.62,10.18003
6269.548,10.18444
6271.477,10.18785
6273.405,10.19047
6275.334,10.1937
6277.263,10.19316
6279.191,10.19772
6281.119,10.20162
6283.048,10.20542
6284.977,10.20718
6286.905,10.20611
6288.833,10.20294
6290.762,10.20763
6292.69,10.20962
6294.619,10.20684
6296.547,10.20671
6298.476,10.20974
6300.404,10.21148
6302.333,10.21532
6304.262,10.21879
6306.19,10.22215
6308.118,10.2226
6310.047,10.22129
6311.976,10.21774
6313.904,10.21805
6315.832,10.21788
6317.761,10.22037
6319.689,10.21744
6321.618,10.21368
6323.546,10.21364
6325.475,10.21271
6327.403,10.20731
6329.332,10.20347
6331.26,10.20279
6333.189,10.19925
6335.117,10.19297
6337.046,10.18978
6338.975,10.18298
6340.903,10.1831
6342.831,10.17406
6344.76,10.16596
6346.688,10.16143
6348.617,10.15857
6350.545,10.154
6352.474,10.14588
6354.402,10.13515
6356.331,10.12882
6358.259,10.11976
6360.188,10.11255
6362.116,10.10696
6364.045,10.09718
6365.974,10.08244
6367.902,10.07075
6369.83,10.05683
6371.759,10.04369
6373.688,10.0324
6375.616,10.02307
6377.544,10.01333
6379.473,10.0073
6381.401,9.998158
6383.33,9.993669
6385.258,9.986986
6387.187,9.98166
6389.115,9.979218
6391.044,9.975932
6392.973,9.972023
6394.901,9.968366
6396.829,9.961787
6398.758,9.95201
6400.687,9.937635
6402.615,9.927656
6404.543,9.914217
6406.472,9.897139
6408.4,9.878222
6410.329,9.858506
6412.257,9.843942
6414.186,9.827738
6416.114,9.811913
6418.043,9.795084
6419.971,9.785964
6421.9,9.780139
6423.828,9.771289
6425.757,9.769522
6427.686,9.760623
6429.614,9.751592
6431.542,9.744928
6433.471,9.736826
6435.399,9.725082
6437.328,9.710883
6439.256,9.693896
6441.185,9.674993
6443.113,9.654998
6445.042,9.637273
6446.97,9.613904
6448.898,9.590165
6450.827,9.567339
6452.756,9.536806
6454.685,9.511159
6456.613,9.485104
6458.541,9.449341
6460.47,9.410923
6462.398,9.365867
6464.327,9.315038
6466.255,9.259638
6468.184,9.190844
6470.112,9.115786
6472.041,9.037294
6473.969,8.9616
6475.897,8.894001
6477.826,8.834919
6479.755,8.786615
6481.684,8.755413
6483.612,8.746781
6485.54,8.752386
6487.469,8.761172
6489.397,8.774946
6491.326,8.800153
6493.254,8.82289
6495.183,8.844783
6497.111,8.865427
6499.04,8.893218
6500.968,8.918997
6502.896,8.938513
6504.825,8.956862
6506.754,8.976178
6508.682,8.992449
6510.61,9.013356
6512.539,9.029943
6514.468,9.044765
6516.396,9.053822
6518.325,9.064314
6520.253,9.073341
6522.182,9.08429
6524.11,9.09475
6526.039,9.107858
6527.967,9.115434
6529.896,9.125018
6531.824,9.136146
6533.753,9.144551
6535.681,9.148833
6537.609,9.154849
6539.538,9.159135
6541.467,9.16795
6543.396,9.176442
6545.324,9.180894
6547.252,9.181892
6549.181,9.191456
6551.109,9.199711
6553.038,9.205091
6554.966,9.207615
6556.895,9.211586
6558.823,9.220282
6560.752,9.22517
6562.68,9.229324
6564.608,9.238951
6566.537,9.243669
6568.466,9.253643
6570.394,9.262151
6572.323,9.271019
6574.251,9.278677
6576.18,9.283058
6578.108,9.291773
6580.037,9.30063
6581.965,9.303752
6583.894,9.308141
6585.822,9.311379
6587.751,9.309236
6589.679,9.307807
6591.607,9.309102
6593.536,9.312039
6595.465,9.313508
6597.393,9.316533
6599.321,9.320666
6601.25,9.321987
6603.179,9.321344
6605.107,9.3204
6607.036,9.320683
6608.964,9.319037
6610.893,9.314954
6612.821,9.309346
6614.75,9.307182
6616.678,9.306664
6618.606,9.304321
6620.535,9.302899
6622.464,9.300089
6624.392,9.293389
6626.32,9.288542
6628.249,9.282595
6630.178,9.274772
6632.106,9.271416
6634.035,9.267603
6635.963,9.262617
6637.892,9.26017
6639.82,9.255979
6641.749,9.247984
6643.677,9.234015
6645.605,9.225537
6647.534,9.22541
6649.463,9.221704
6651.391,9.2141
6653.319,9.205738
6655.248,9.192138
6657.177,9.185526
6659.105,9.176354
6661.034,9.166993
6662.962,9.157296
6664.891,9.146863
6666.819,9.134152
6668.748,9.129817
6670.676,9.123046
6672.604,9.110581
6674.533,9.096369
6676.462,9.091004
6678.39,9.077381
6680.318,9.064492
6682.247,9.055504
6684.176,9.045012
6686.104,9.027999
6688.032,9.020075
6689.961,9.005545
6691.89,8.992126
6693.818,8.98183
6695.747,8.969179
6697.675,8.954806
6699.604,8.938441
6701.532,8.923251
6703.46,8.908949
6705.389,8.892117
6707.317,8.881866
6709.246,8.865989
6711.175,8.84936
6713.103,8.831832
6715.031,8.81512
6716.96,8.795997
6718.889,8.781986
6720.817,8.769367
6722.746,8.755337
6724.674,8.74279
6726.603,8.725092
6728.531,8.70606
6730.459,8.692753
6732.388,8.681792
6734.316,8.666755
6736.245,8.647409
6738.174,8.634985
6740.102,8.621149
6742.03,8.607001
6743.959,8.586797
6745.888,8.571895
6747.816,8.555107
6749.745,8.543888
6751.673,8.536104
6753.602,8.51867
6755.53,8.493028
6757.458,8.479797
6759.387,8.466797
6761.315,8.453641
6763.244,8.439995
6765.173,8.423203
6767.101,8.398886
6769.029,8.3775
6770.958,8.35714
6772.887,8.339306
6774.815,8.323617
6776.743,8.30128
6778.672,8.272547
6780.601,8.251595
6782.529,8.226277
6784.458,8.200763
6786.386,8.175917
6788.314,8.149405
6790.243,8.120951
6792.171,8.091888
6794.1,8.06498
6796.028,8.038638
6797.957,8.008013
6799.886,7.974726
6801.814,7.946507
6803.742,7.918806
6805.671,7.884127
6807.6,7.854951
6809.528,7.827259
6811.457,7.803523
6813.385,7.774614
6815.313,7.745356
6817.242,7.713278
6819.17,7.681427
6821.099,7.649717
6823.027,7.617124
6824.956,7.583813
6826.885,7.555587
6828.813,7.529244
6830.741,7.498682
6832.67,7.468927
6834.599,7.447402
6836.527,7.428422
6838.455,7.410749
6840.384,7.393929
6842.313,7.382903
6844.241,7.36464
6846.169,7.349938
6848.098,7.335735
6850.026,7.32097
6851.955,7.308135
6853.884,7.29423
6855.812,7.273736
6857.74,7.25422
6859.669,7.24195
6861.598,7.232659
6863.526,7.212097
6865.454,7.188412
6867.383,7.172048
6869.312,7.157046
6871.24,7.136722
6873.168,7.118628
6875.097,7.100862
6877.025,7.080695
6878.954,7.057444
6880.882,7.034384
6882.811,7.007126
6884.739,6.979804
6886.668,6.956571
6888.597,6.938423
6890.525,6.916867
6892.453,6.893203
6894.382,6.865608
6896.311,6.842595
6898.239,6.821966
6900.167,6.803862
6902.096,6.785483
6904.024,6.768752
6905.953,6.752305
6907.881,6.739436
6909.81,6.725554
6911.738,6.707364
6913.667,6.69013
6915.596,6.672876
6917.524,6.645599
6919.452,6.626239
6921.381,6.608347
6923.31,6.581672
6925.238,6.558317
6927.166,6.540429
6929.095,6.511401
6931.023,6.478833
6932.952,6.447424
6934.88,6.418465
6936.809,6.385448
6938.737,6.347678
6940.666,6.316671
6942.594,6.287788
6944.523,6.258507
6946.451,6.233953
6948.38,6.210163
6950.309,6.198697
6952.237,6.196157
6954.165,6.1911
6956.094,6.178426
6958.022,6.172013
6959.951,6.173927
6961.879,6.173464
6963.808,6.169049
6965.736,6.166567
6967.665,6.162888
6969.593,6.168121
6971.521,6.167549
6973.45,6.168858
6975.379,6.160346
6977.308,6.152413
6979.236,6.153866
6981.164,6.147673
6983.093,6.141091
6985.021,6.142157
6986.95,6.133189
6988.878,6.124072
6990.807,6.115439
6992.735,6.11001
6994.664,6.100352
6996.592,6.087423
6998.521,6.068324
7000.449,6.060368
7002.378,6.051228
7004.307,6.038835
7006.235,6.024392
7008.163,6.006782
7010.092,5.990903
7012.021,5.981676
7013.949,5.968829
7015.877,5.947029
7017.806,5.929375
7019.734,5.927266
7021.663,5.921989
7023.591,5.909486
7025.52,5.90356
7027.448,5.902122
7029.377,5.907122
7031.305,5.915154
7033.234,5.913502
7035.162,5.912975
7037.091,5.911826
7039.02,5.912937
7040.948,5.912433
7042.876,5.909073
7044.805,5.896126
7046.733,5.872328
7048.662,5.841993
7050.59,5.812969
7052.519,5.785238
7054.447,5.751281
7056.376,5.71141
7058.304,5.671892
7060.232,5.641999
7062.161,5.62795
7064.09,5.624714
7066.019,5.641117
7067.947,5.658579
7069.875,5.695161
7071.804,5.734718
7073.732,5.778812
7075.661,5.825272
7077.589,5.879298
7079.518,5.932367
7081.446,5.967642
7083.375,5.999607
7085.303,6.036403
7087.231,6.063695
7089.16,6.087645
7091.089,6.114331
7093.018,6.144368
7094.946,6.161749
7096.874,6.178566
7098.803,6.204386
7100.731,6.236432
7102.66,6.276026
7104.588,6.316466
7106.517,6.345399
7108.445,6.37531
7110.374,6.410458
7112.302,6.445496
7114.23,6.483502
7116.159,6.519765
7118.088,6.533657
7120.016,6.560991
7121.944,6.592453
7123.873,6.616762
7125.802,6.629168
7127.73,6.63612
7129.659,6.643678
7131.587,6.641793
7133.516,6.633684
7135.444,6.618872
7137.373,6.606836
7139.301,6.582456
7141.229,6.553312
7143.158,6.531601
7145.087,6.48838
7147.015,6.435247
7148.943,6.386786
7150.872,6.329445
7152.801,6.255433
7154.729,6.174987
7156.658,6.083535
7158.586,5.992897
7160.515,5.864907
7162.443,5.709358
7164.372,5.591738
7166.3,5.47182
7168.229,5.371325
7170.157,5.296407
7172.086,5.265944
7174.014,5.262284
7175.942,5.291212
7177.871,5.347876
7179.8,5.422997
7181.729,5.492836
7183.657,5.572335
7185.585,5.654417
7187.514,5.737711
7189.442,5.821509
7191.371,5.899445
7193.299,5.987216
7195.228,6.067358
7197.156,6.149467
7199.085,6.227145
7201.013,6.312419
7202.941,6.398074
7204.87,6.466603
7206.799,6.530966
7208.727,6.617855
7210.655,6.692904
7212.584,6.757785
7214.513,6.821598
7216.441,6.896526
7218.37,6.976957
7220.298,7.036579
7222.227,7.093569
7224.155,7.178844
7226.083,7.252759
7228.012,7.31669
7229.94,7.403131
7231.869,7.464441
7233.798,7.5
7235.726,7.56953
7237.654,7.627026
7239.583,7.698741
7241.512,7.769615
7243.44,7.801105
7245.369,7.849899
7247.297,7.918045
7249.226,7.97511
7251.154,8.044755
7253.083,8.092771
7255.011,8.141351
7256.939,8.201206
7258.868,8.271386
7260.797,8.332161
7262.725,8.374325
7264.653,8.429729
7266.582,8.495008
7268.511,8.544018
7270.439,8.600073
7272.368,8.664072
7274.296,8.720971
7276.225,8.773205
7278.153,8.827555
7280.082,8.875371
7282.01,8.928303
7283.938,8.990781
7285.867,9.052309
7287.796,9.090933
7289.724,9.141721
7291.652,9.20561
7293.581,9.252293
7295.51,9.285198
7297.438,9.3578
7299.366,9.402018
7301.295,9.443067
7303.224,9.498157
7305.152,9.564341
7307.081,9.596476
7309.009,9.656176
7310.938,9.710264
7312.866,9.740588
7314.794,9.795166
7316.723,9.826929
7318.651,9.868253
7320.58,9.923179
7322.509,9.97136
7324.437,9.99323
7326.365,10.05341
7328.294,10.05714
7330.223,10.08127
7332.151,10.10649
7334.08,10.13388
7336.008,10.15998
7337.937,10.21416
7339.865,10.22216
7341.793,10.22598
7343.722,10.24219
7345.65,10.26338
7347.579,10.28173
7349.508,10.28502
7351.436,10.3147
7353.364,10.35454
7355.293,10.37613
7357.222,10.3915
7359.15,10.43464
7361.079,10.45242
7363.007,10.47648
7364.936,10.50672
7366.864,10.5471
7368.792,10.55902
7370.721,10.58285
7372.649,10.62896
7374.578,10.65698
7376.507,10.66205
7378.435,10.70526
7380.363,10.72847
7382.292,10.7453
7384.221,10.77521
7386.149,10.79397
7388.077,10.80392
7390.006,10.82667
7391.935,10.84812
7393.863,10.85827
7395.792,10.86813
7397.72,10.88917
7399.648,10.89547
7401.577,10.91006
7403.505,10.93243
7405.434,10.93988
7407.362,10.93972
7409.291,10.95755
7411.22,10.96617
7413.148,10.9736
7415.076,10.97874
7417.005,10.98774
7418.934,10.9943
7420.862,10.99965
7422.791,10.99967
7424.719,11.00897
7426.647,11.02073
7428.576,11.02931
7430.504,11.02907
7432.433,11.02738
7434.361,11.02977
7436.29,11.04248
7438.219,11.05169
7440.147,11.05318
7442.075,11.04924
7444.004,11.05386
7445.933,11.06705
7447.861,11.07416
7449.789,11.07638
7451.718,11.07573
7453.646,11.07388
7455.575,11.08168
7457.503,11.08923
7459.432,11.08688
7461.36,11.08673
7463.289,11.09952
7465.218,11.09897
7467.146,11.10367
7469.074,11.10486
7471.003,11.10581
7472.932,11.10646
7474.86,11.10571
7476.788,11.10164
7478.717,11.1076
7480.646,11.11543
7482.574,11.11638
7484.502,11.11487
7486.431,11.11562
7488.359,11.11206
7490.288,11.10987
7492.216,11.11103
7494.145,11.11141
7496.073,11.11334
7498.002,11.10973
7499.931,11.10505
7501.859,11.10723
7503.787,11.10948
7505.716,11.11048
7507.645,11.09931
7509.573,11.09996
7511.501,11.10057
7513.43,11.10551
7515.358,11.10117
7517.287,11.09598
7519.215,11.09321
7521.144,11.09462
7523.072,11.09496
7525.001,11.09422
7526.93,11.08874
7528.858,11.091
7530.786,11.09457
7532.715,11.08774
7534.644,11.08297
7536.572,11.08162
7538.5,11.07633
7540.429,11.07079
7542.357,11.06744
7544.286,11.06874
7546.214,11.06349
7548.143,11.05483
7550.071,11.05566
7552.0,11.05783
7553.928,11.06248
7555.857,11.06004
7557.785,11.04981
7559.714,11.04437
7561.643,11.04339
7563.571,11.04181
7565.499,11.03457
7567.428,11.02521
7569.356,11.02133
7571.285,11.01923
7573.213,11.0151
7575.142,11.0075
7577.07,11.00527
7578.999,11.00431
7580.927,10.99996
7582.855,10.99925
7584.784,10.99219
7586.713,10.98493
7588.642,10.97892
7590.57,10.97544
7592.498,10.96956
7594.427,10.96544
7596.355,10.96217
7598.284,10.95552
7600.212,10.94792
7602.141,10.94825
7604.069,10.9444
7605.998,10.93981
7607.926,10.93541
7609.854,10.92801
7611.783,10.91915
7613.712,10.91235
7615.641,10.90959
7617.569,10.89967
7619.497,10.89412
7621.426,10.88963
7623.354,10.87849
7625.283,10.87126
7627.211,10.86355
7629.14,10.8512
7631.068,10.84118
7632.997,10.8381
7634.925,10.83241
7636.854,10.82579
7638.782,10.81316
7640.711,10.80495
7642.639,10.79497
7644.568,10.79019
7646.496,10.78808
7648.425,10.77949
7650.354,10.77442
7652.282,10.76565
7654.21,10.75347
7656.139,10.7497
7658.067,10.74816
7659.996,10.74049
7661.924,10.7308
7663.853,10.72492
7665.781,10.71679
7667.71,10.7109
7669.638,10.70624
7671.566,10.70107
7673.495,10.6983
7675.424,10.68695
7677.353,10.68281
7679.281,10.68284
7681.209,10.68144
7683.138,10.67227
7685.066,10.66393
7686.995,10.65855
7688.923,10.66015
7690.852,10.66206
7692.78,10.64765
7694.709,10.63093
7696.637,10.63959
7698.565,10.64301
7700.494,10.63713
7702.423,10.62538
7704.352,10.61762
7706.28,10.61835
7708.208,10.60986
7710.137,10.59752
7712.065,10.58491
7713.994,10.58986
7715.922,10.59138
7717.851,10.58026
7719.779,10.57151
7721.708,10.5702
7723.636,10.56572
7725.564,10.56439
7727.493,10.55376
7729.422,10.54047
7731.35,10.53882
7733.279,10.53411
7735.207,10.53351
7737.136,10.52888
7739.064,10.5228
7740.993,10.51758
7742.921,10.51486
7744.85,10.51365
7746.778,10.50766
7748.707,10.49937
7750.635,10.49047
7752.563,10.48779
7754.492,10.48349
7756.421,10.48061
7758.349,10.47083
7760.277,10.45958
7762.206,10.45015
7764.135,10.44309
7766.063,10.43661
7767.992,10.42806
7769.92,10.41655
7771.849,10.41551
7773.777,10.42232
7775.706,10.41949
7777.634,10.41228
7779.563,10.41004
7781.491,10.40039
7783.42,10.39275
7785.348,10.39089
7787.276,10.38295
7789.205,10.37815
7791.134,10.37497
7793.063,10.36603
7794.991,10.36635
7796.919,10.35967
7798.848,10.34914
7800.776,10.34541
7802.705,10.33758
7804.633,10.32497
7806.562,10.32041
7808.49,10.32205
7810.419,10.31598
7812.347,10.30271
7814.275,10.3035
7816.204,10.29838
7818.133,10.28584
7820.061,10.27782
7821.989,10.27792
7823.918,10.27509
7825.847,10.25795
7827.775,10.24128
7829.704,10.24023
7831.632,10.23373
7833.561,10.22963
7835.489,10.22528
7837.417,10.21748
7839.346,10.20486
7841.274,10.19774
7843.203,10.1924
7845.132,10.18014
7847.06,10.17342
7848.988,10.16089
7850.917,10.14564
7852.846,10.1375
7854.774,10.12993
7856.703,10.11158
7858.631,10.09712
7860.56,10.09275
7862.488,10.08426
7864.417,10.07025
7866.345,10.06269
7868.273,10.06186
7870.202,10.04504
7872.131,10.02818
7874.059,10.02092
7875.987,10.00851
7877.916,9.997692
7879.845,9.987218
7881.773,9.968043
7883.702,9.947646
7885.63,9.937128
7887.559,9.932523
7889.487,9.92444
7891.416,9.9084
7893.344,9.895143
7895.272,9.873614
7897.201,9.84921
7899.13,9.845976
7901.058,9.840049
7902.986,9.821422
7904.915,9.805851
7906.844,9.793274
7908.772,9.775235
7910.7,9.763779
7912.629,9.750388
7914.558,9.728394
7916.486,9.712914
7918.415,9.703608
7920.343,9.691757
7922.271,9.674013
7924.2,9.659364
7926.128,9.645359
7928.057,9.626016
7929.985,9.604925
7931.914,9.584649
7933.843,9.567962
7935.771,9.555251
7937.699,9.531675
7939.628,9.514235
7941.557,9.497606
7943.485,9.477599
7945.414,9.458431
7947.342,9.435357
7949.271,9.417645
7951.199,9.39989
7953.127,9.382539
7955.056,9.366094
7956.984,9.341025
7958.913,9.315391
7960.842,9.295186
7962.77,9.277207
7964.698,9.259104
7966.627,9.233457
7968.556,9.214229
7970.484,9.184575
7972.413,9.157516
7974.341,9.14516
7976.27,9.123881
7978.198,9.090261
7980.126,9.07079
7982.055,9.055585
7983.983,9.039385
7985.912,9.010357
7987.841,8.978436
7989.769,8.948436
7991.697,8.928399
7993.626,8.907589
7995.555,8.883379
7997.483,8.861238
7999.411,8.838419
8001.34,8.805641
8003.269,8.78185
8005.197,8.750985
8007.125,8.725041
8009.054,8.705142
8010.982,8.679386
8012.911,8.650162
8014.839,8.623462
8016.768,8.599048
8018.696,8.559842
8020.625,8.52588
8022.554,8.497121
8024.482,8.471354
8026.41,8.449217
8028.339,8.419945
8030.268,8.382713
8032.196,8.342854
8034.125,8.319729
8036.053,8.298371
8037.981,8.269691
8039.91,8.237939
8041.838,8.202043
8043.767,8.171281
8045.695,8.138792
8047.624,8.106853
8049.553,8.07672
8051.481,8.032668
8053.409,7.995
8055.338,7.964547
8057.267,7.929818
8059.195,7.900172
8061.124,7.869814
8063.052,7.828962
8064.98,7.781198
8066.909,7.749516
8068.837,7.724796
8070.766,7.69239
8072.694,7.649082
8074.623,7.613921
8076.552,7.578506
8078.48,7.532141
8080.408,7.495575
8082.337,7.46472
8084.266,7.423194
8086.194,7.377416
8088.122,7.337581
8090.051,7.29298
8091.979,7.255581
8093.908,7.225077
8095.836,7.187197
8097.765,7.144159
8099.693,7.108592
8101.622,7.065917
8103.551,7.02199
8105.479,6.973133
8107.407,6.925531
8109.336,6.880042
8111.265,6.835195
8113.192,6.79692
8115.121,6.747965
8117.05,6.704346
8118.979,6.659595
8120.907,6.615768
8122.835,6.581088
8124.764,6.529832
8126.692,6.462822
8128.621,6.418403
8130.55,6.381585
8132.478,6.333216
8134.406,6.277222
8136.335,6.224006
8138.264,6.175951
8140.191,6.132473
8142.12,6.087245
8144.049,6.037015
8145.978,5.99151
8147.906,5.937204
8149.834,5.880785
8151.763,5.840487
8153.691,5.789824
8155.62,5.739308
8157.548,5.697608
8159.477,5.656338
8161.405,5.607889
8163.334,5.552431
8165.263,5.503112
8167.19,5.449813
8169.119,5.399892
8171.048,5.365948
8172.977,5.331741
8174.905,5.28143
8176.833,5.222855
8178.762,5.183537
8180.69,5.146127
8182.619,5.103408
8184.547,5.065098
8186.476,5.029542
8188.404,4.993649
8190.333,4.966974
8192.262,4.939978
8194.189,4.901189
8196.118,4.871843
8198.047,4.848289
8199.976,4.82353
8201.903,4.799121
8203.832,4.777534
8205.761,4.757111
8207.689,4.742383
8209.618,4.727528
8211.546,4.721836
8213.475,4.712729
8215.403,4.69769
8217.332,4.681019
8219.261,4.677146
8221.188,4.681822
8223.117,4.679296
8225.046,4.679016
8226.975,4.672815
8228.902,4.670889
8230.831,4.679578
8232.76,4.676907
8234.688,4.671076
8236.617,4.671328
8238.545,4.681546
8240.474,4.685352
8242.402,4.683266
8244.331,4.685656
8246.259,4.685157
8248.188,4.68934
8250.116,4.697101
8252.045,4.706952
8253.974,4.710694
8255.901,4.733695
8257.83,4.74114
8259.759,4.751314
8261.688,4.766007
8263.616,4.771816
8265.544,4.787808
8267.473,4.801575
8269.401,4.820682
8271.33,4.842144
8273.258,4.85087
8275.187,4.874381
8277.115,4.906228
8279.044,4.921991
8280.973,4.93664
8282.9,4.958799
8284.829,4.987125
8286.758,5.013379
8288.687,5.038978
8290.614,5.061378
8292.543,5.09734
8294.472,5.129493
8296.4,5.160144
8298.329,5.192008
8300.257,5.211771
8302.186,5.239105
8304.114,5.273027
8306.043,5.295298
8307.972,5.323883
8309.899,5.361258
8311.828,5.400374
8313.757,5.428476
8315.686,5.458105
8317.613,5.488172
8319.542,5.508755
8321.471,5.537055
8323.399,5.578362
8325.328,5.614437
8327.256,5.634914
8329.185,5.652656
8331.113,5.684
8333.042,5.729094
8334.97,5.763044
8336.898,5.789223
8338.827,5.818124
8340.756,5.856345
8342.685,5.887659
8344.612,5.931105
8346.541,5.962648
8348.47,6.001884
8350.398,6.041551
8352.327,6.074657
8354.255,6.107853
8356.184,6.142606
8358.112,6.174903
8360.041,6.204506
8361.969,6.240561
8363.897,6.282789
8365.826,6.321189
8367.755,6.348771
8369.684,6.386191
8371.611,6.412066
8373.54,6.44252
8375.469,6.475161
8377.397,6.502029
8379.325,6.523787
8381.254,6.560376
8383.183,6.590896
8385.111,6.620417
8387.04,6.647997
8388.968,6.67096
8390.896,6.690726
8392.825,6.716734
8394.754,6.736723
8396.683,6.749835
8398.61,6.765217
8400.539,6.77226
8402.468,6.786328
8404.396,6.798699
8406.324,6.816778
8408.253,6.820899
8410.182,6.824592
8412.11,6.832441
8414.039,6.847682
8415.967,6.854036
8417.896,6.860887
8419.824,6.875295
8421.753,6.884819
8423.681,6.889212
8425.609,6.905339
8427.538,6.931292
8429.467,6.953598
8431.396,6.97962
8433.323,7.014081
8435.252,7.052226
8437.181,7.092729
8439.109,7.131717
8441.037,7.165954
8442.966,7.208146
8444.895,7.241076
8446.823,7.284661
8448.752,7.334384
8450.68,7.38686
8452.608,7.438599
8454.537,7.474922
8456.466,7.513499
8458.395,7.556587
8460.322,7.599396
8462.251,7.625087
8464.18,7.659382
8466.108,7.699991
8468.036,7.726526
8469.965,7.76119
8471.894,7.792772
8473.822,7.823556
8475.751,7.861025
8477.679,7.895725
8479.607,7.930981
8481.536,7.969283
8483.465,8.00783
8485.393,8.052917
8487.321,8.079115
8489.25,8.107471
8491.179,8.146556
8493.107,8.179007
8495.035,8.192601
8496.964,8.22169
8498.893,8.25696
8500.821,8.280036
8502.75,8.29424
8504.678,8.319573
8506.606,8.345528
8508.535,8.350944
8510.464,8.354111
8512.392,8.36809
8514.32,8.395251
8516.249,8.404729
8518.178,8.4205
8520.106,8.443511
8522.034,8.469674
8523.963,8.485581
8525.892,8.494376
8527.82,8.507083
8529.748,8.531088
8531.677,8.536658
8533.605,8.534865
8535.534,8.545993
8537.463,8.55613
8539.391,8.535768
8541.319,8.507271
8543.248,8.498137
8545.177,8.481329
8547.105,8.462348
8549.033,8.440421
8550.962,8.412918
8552.891,8.3797
8554.819,8.347727
8556.747,8.318069
8558.676,8.288183
8560.604,8.275465
8562.533,8.253177
8564.462,8.241985
8566.39,8.267262
8568.318,8.295241
8570.247,8.321313
8572.176,8.359766
8574.104,8.41063
8576.032,8.449025
8577.961,8.477693
8579.89,8.520245
8581.818,8.580012
8583.746,8.624404
8585.675,8.655391
8587.604,8.708581
8589.532,8.769233
8591.461,8.840047
8593.389,8.905601
8595.317,8.959298
8597.246,9.010193
8599.175,9.059646
8601.103,9.109386
8603.031,9.170233
8604.96,9.221964
8606.889,9.274483
8608.817,9.340833
8610.745,9.403117
8612.674,9.455605
8614.603,9.49761
8616.531,9.549643
8618.459,9.611034
8620.388,9.66545
8622.316,9.709539
8624.245,9.7405
8626.174,9.787005
8628.102,9.835398
8630.03,9.878465
8631.959,9.916711
8633.888,9.963106
8635.816,10.00559
8637.744,10.03856
8639.673,10.06763
8641.602,10.10845
8643.53,10.14584
8645.458,10.1768
8647.387,10.21
8649.315,10.23253
8651.244,10.25796
8653.173,10.28203
8655.101,10.29735
8657.029,10.32782
8658.958,10.36622
8660.887,10.39343
8662.814,10.41105
8664.743,10.43705
8666.672,10.46308
8668.601,10.48064
8670.529,10.48744
8672.457,10.50775
8674.386,10.53078
8676.314,10.5608
8678.243,10.58798
8680.172,10.60117
8682.1,10.61592
8684.028,10.64112
8685.957,10.65577
8687.886,10.67803
8689.813,10.70478
8691.742,10.72362
8693.671,10.74783
8695.6,10.78804
8697.528,10.80619
8699.456,10.82621
8701.385,10.84932
8703.313,10.88554
8705.242,10.91297
8707.17,10.93939
8709.099,10.96013
8711.027,11.00932
8712.956,11.05646
8714.885,11.08364
8716.813,11.09785
8718.741,11.1191
8720.67,11.14504
8722.599,11.17895
8724.527,11.20807
8726.455,11.23396
8728.384,11.26598
8730.313,11.29763
8732.241,11.32577
8734.169,11.35587
8736.098,11.37193
8738.026,11.39236
8739.955,11.42566
8741.884,11.46054
8743.812,11.48317
8745.74,11.49978
8747.669,11.52099
8749.598,11.55244
8751.525,11.57136
8753.454,11.59011
8755.383,11.61827
8757.312,11.64822
8759.24,11.65837
8761.168,11.66981
8763.097,11.6958
8765.025,11.70905
8766.954,11.72015
8768.882,11.7432
8770.811,11.761
8772.739,11.77428
8774.668,11.78484
8776.597,11.81298
8778.524,11.8332
8780.453,11.85493
8782.382,11.86077
8784.311,11.86266
8786.239,11.88203
8788.167,11.90336
8790.096,11.9245
8792.024,11.93841
8793.953,11.93351
8795.881,11.93358
8797.81,11.95856
8799.738,11.97574
8801.667,11.97353
8803.596,11.98152
8805.523,11.99874
8807.452,12.01418
8809.381,12.02192
8811.31,12.03507
8813.237,12.03225
8815.166,12.03982
8817.095,12.06225
8819.023,12.068
8820.952,12.06628
8822.88,12.07045
8824.809,12.0807
8826.737,12.08765
8828.666,12.08591
8830.595,12.09145
8832.522,12.106
8834.451,12.11329
8836.38,12.10325
8838.309,12.09742
8840.236,12.10877
8842.165,12.10992
8844.094,12.1167
8846.022,12.13383
8847.951,12.13532
8849.879,12.1367
8851.808,12.13603
8853.736,12.14686
8855.665,12.15573
8857.593,12.15204
8859.521,12.15523
8861.45,12.15484
8863.379,12.16373
8865.308,12.17463
8867.235,12.1713
8869.164,12.17146
8871.093,12.17056
8873.021,12.1823
8874.95,12.18392
8876.878,12.17556
8878.807,12.17661
8880.735,12.17899
8882.664,12.17618
8884.592,12.17325
8886.521,12.17118
8888.449,12.1723
8890.378,12.18546
8892.307,12.19092
8894.234,12.17821
8896.163,12.19346
8898.092,12.20386
8900.021,12.19765
8901.948,12.18895
8903.877,12.19392
8905.806,12.19048
8907.734,12.19345
8909.663,12.18998
8911.591,12.18887
8913.52,12.19431
8915.448,12.20286
8917.377,12.19798
8919.306,12.18322
8921.233,12.18778
8923.162,12.19446
8925.091,12.19717
8927.02,12.19115
8928.947,12.18641
8930.876,12.18523
8932.805,12.17823
8934.733,12.1767
8936.662,12.17726
8938.59,12.17593
8940.519,12.17165
8942.447,12.1679
8944.376,12.17617
8946.304,12.18207
8948.232,12.19331
8950.161,12.19841
8952.09,12.20639
8954.019,12.1961
8955.946,12.18067
8957.875,12.16509
8959.804,12.16996
8961.732,12.17717
8963.661,12.18405
8965.589,12.18693
8967.518,12.1809
8969.446,12.18184
8971.375,12.18439
8973.303,12.18047
8975.231,12.17518
8977.16,12.19815
8979.089,12.192
8981.018,12.18605
8982.945,12.19633
8984.874,12.18423
8986.803,12.16958
8988.731,12.19279
8990.659,12.20326
8992.588,12.21257
8994.517,12.20259
8996.445,12.1993
8998.374,12.20379
9000.302,12.20036
9002.23,12.20077
9004.159,12.20193
9006.088,12.20197
9008.017,12.20739
9009.944,12.21817
9011.873,12.21198
9013.802,12.21361
9015.73,12.22647
9017.658,12.21559
9019.587,12.20934
9021.516,12.23244
9023.444,12.24063
9025.373,12.23408
9027.301,12.23291
9029.229,12.22838
9031.158,12.22515
9033.087,12.24466
9035.015,12.23862
9036.943,12.23409
9038.872,12.23238
9040.801,12.2347
9042.729,12.24285
9044.657,12.23884
9046.586,12.24245
9048.515,12.25561
9050.443,12.24618
9052.372,12.24401
9054.3,12.25941
9056.229,12.2538
9058.157,12.25909
9060.086,12.27071
9062.014,12.26854
9063.942,12.26159
9065.871,12.25709
9067.8,12.26127
9069.729,12.25527
9071.656,12.25798
9073.585,12.25993
9075.514,12.23984
9077.442,12.22985
9079.37,12.24391
9081.299,12.26109
9083.228,12.25951
9085.156,12.27287
9087.085,12.27571
9089.013,12.28353
9090.941,12.28043
9092.87,12.26372
9094.799,12.26124
9096.727,12.2574
9098.655,12.25965
9100.584,12.26381
9102.513,12.26813
9104.441,12.27697
9106.369,12.26373
9108.298,12.2467
9110.227,12.24555
9112.155,12.24423
9114.084,12.24032
9116.012,12.24991
9117.94,12.25899
9119.869,12.26484
9121.798,12.25058
9123.726,12.24897
9125.654,12.25646
9127.583,12.24467
9129.512,12.24083
9131.44,12.24312
9133.368,12.23979
9135.297,12.23538
9137.226,12.2374
9139.154,12.24818
9141.082,12.24176
9143.011,12.24297
9144.939,12.24711
9146.868,12.24838
9148.797,12.2505
9150.725,12.24967
9152.653,12.24757
9154.582,12.25105
9156.511,12.24897
9158.439,12.25081
9160.367,12.24072
9162.296,12.22461
9164.225,12.22173
9166.153,12.23415
9168.081,12.23997
9170.01,12.22566
9171.938,12.22208
9173.867,12.21529
9175.796,12.22924
9177.724,12.23435
9179.652,12.22541
9181.581,12.21474
9183.51,12.19748
9185.438,12.18435
9187.366,12.19396
9189.295,12.20137
9191.224,12.1981
9193.152,12.21116
9195.08,12.2038
9197.009,12.19584
9198.938,12.18846
9200.866,12.18436
9202.795,12.18702
9204.723,12.19627
9206.651,12.17642
9208.58,12.16178
9210.509,12.16668
9212.437,12.18199
9214.365,12.19354
9216.294,12.18256
9218.223,12.16652
9220.151,12.15912
9222.079,12.15785
9224.008,12.1666
9225.937,12.16542
9227.865,12.15819
9229.793,12.15593
9231.722,12.15273
9233.65,12.15655
9235.579,12.14084
9237.508,12.12428
9239.436,12.13238
9241.364,12.14458
9243.293,12.13669
9245.222,12.13297
9247.15,12.14747
9249.078,12.13823
9251.007,12.13159
9252.936,12.12721
9254.864,12.12597
9256.792,12.12433
9258.721,12.12417
9260.649,12.11112
9262.578,12.10463
9264.507,12.10872
9266.435,12.12253
9268.363,12.12145
9270.292,12.12851
9272.221,12.13159
9274.148,12.12148
9276.077,12.11842
9278.006,12.12417
9279.935,12.10553
9281.863,12.11042
9283.791,12.10199
9285.72,12.09063
9287.648,12.08652
9289.577,12.09354
9291.506,12.10168
9293.434,12.09878
9295.362,12.07998
9297.291,12.07848
9299.22,12.08032
9301.147,12.07937
9303.076,12.09036
9305.005,12.11032
9306.934,12.09462
9308.862,12.09289
9310.79,12.09025
9312.719,12.08132
9314.647,12.08268
9316.576,12.09368
9318.504,12.09492
9320.433,12.08676
9322.361,12.09712
9324.29,12.09392
9326.219,12.09041
9328.146,12.08916
9330.075,12.07884
9332.004,12.07411
9333.933,12.08045
9335.861,12.0616
9337.789,12.06723
9339.718,12.0822
9341.646,12.07247
9343.575,12.06743
9345.503,12.08617
9347.432,12.10036
9349.36,12.08009
9351.289,12.08434
9353.218,12.09814
9355.146,12.08177
9357.074,12.06332
9359.003,12.06215
9360.932,12.05885
9362.859,12.04665
9364.788,12.03398
9366.717,12.03241
9368.646,12.04271
9370.574,12.03395
9372.502,12.02292
9374.431,12.03277
9376.359,12.01715
9378.288,12.01707
9380.217,12.04494
9382.145,12.04325
9384.073,12.01551
9386.002,12.00644
9387.931,11.98307
9389.858,11.97862
9391.787,11.99745
9393.716,12.0047
9395.645,12.00451
9397.573,12.00743
9399.501,11.99293
9401.43,12.0024
9403.358,11.98748
9405.287,11.98288
9407.215,11.96877
9409.144,11.96203
9411.072,11.96987
9413.001,11.97155
9414.93,11.96959
9416.857,11.96342
9418.786,11.94357
9420.715,11.92501
9422.644,11.93114
9424.571,11.92144
9426.5,11.90864
9428.429,11.90567
9430.357,11.91368
9432.286,11.90434
9434.214,11.89764
9436.143,11.89435
9438.071,11.8874
9440.0,11.88107
9441.929,11.86133
9443.856,11.85817
9445.785,11.85634
9447.714,11.86257
9449.643,11.87038
9451.57,11.86429
9453.499,11.84626
9455.428,11.84575
9457.356,11.84641
9459.285,11.82904
9461.213,11.81098
9463.142,11.82642
9465.07,11.81923
9466.999,11.80339
9468.927,11.80027
9470.855,11.79821
9472.784,11.79283
9474.713,11.78297
9476.642,11.77536
9478.569,11.77295
9480.498,11.79649
9482.427,11.80265
9484.355,11.80703
9486.284,11.79689
9488.212,11.7746
9490.141,11.76602
9492.069,11.7535
9493.998,11.75337
9495.926,11.7666
9497.854,11.76804
9499.783,11.7688
9501.712,11.75578
9503.641,11.74372
9505.568,11.75209
9507.497,11.76273
9509.426,11.7584
9511.354,11.74055
9513.282,11.7301
9515.211,11.7363
9517.14,11.73476
9519.068,11.73512
9520.997,11.72446
9522.925,11.72217
9524.854,11.73027
9526.782,11.73099
9528.711,11.70741
9530.64,11.716
9532.567,11.72176
9534.496,11.72013
9536.425,11.70435
9538.354,11.68652
9540.281,11.68662
9542.21,11.69359
9544.139,11.67976
9546.067,11.66407
9547.996,11.6651
9549.924,11.66562
9551.853,11.66394
9553.781,11.66315
9555.71,11.63867
9557.638,11.63831
9559.566,11.6495
9561.495,11.6423
9563.424,11.63685
9565.353,11.6221
9567.28,11.62171
9569.209,11.61849
9571.138,11.61792
9573.066,11.63375
9574.995,11.63745
9576.923,11.61464
9578.852,11.59086
9580.78,11.58372
9582.709,11.56563
9584.637,11.57901
9586.565,11.60843
9588.494,11.60749
9590.423,11.59487
9592.352,11.58473
9594.279,11.59785
9596.208,11.59135
9598.137,11.57546
9600.065,11.57391
9601.993,11.57522
9603.922,11.58161
9605.851,11.59104
9607.779,11.60178
9609.708,11.6013
9611.636,11.60465
9613.564,11.61292
9615.493,11.61224
9617.422,11.62667
9619.351,11.6253
9621.278,11.6329
9623.207,11.64264
9625.136,11.64714
9627.064,11.64608
9628.992,11.65001
9630.921,11.65548
9632.85,11.65946
9634.778,11.67269
9636.707,11.68756
9638.635,11.68692
9640.563,11.67359
9642.492,11.6951
9644.421,11.71373
9646.349,11.72886
9648.277,11.72481
9650.206,11.71805
9652.135,11.7266
9654.063,11.72336
9655.991,11.7398
9657.92,11.75845
9659.849,11.77428
9661.777,11.7782
9663.706,11.76878
9665.634,11.7615
9667.563,11.78163
9669.491,11.78903
9671.42,11.81021
9673.348,11.82454
9675.276,11.82189
9677.205,11.83
9679.134,11.81409
9681.063,11.82189
9682.99,11.8558
9684.919,11.87942
9686.848,11.89158
9688.776,11.90751
9690.704,11.89031
9692.633,11.86164
9694.562,11.88157
9696.49,11.91856
9698.419,11.90863
9700.347,11.92045
9702.275,11.92305
9704.204,11.9148
9706.133,11.91811
9708.062,11.94236
9709.989,11.95371
9711.918,11.9603
9713.847,11.97839
9715.775,11.9945
9717.703,12.01736
9719.632,12.00962
9721.561,12.00078
9723.489,12.00717
9725.418,12.0222
9727.346,12.03372
9729.274,12.06165
9731.203,12.04467
9733.132,12.03185
9735.06,12.03061
9736.988,12.05389
9738.917,12.07419
9740.846,12.07157
9742.774,12.07443
9744.702,12.09435
9746.631,12.09264
9748.56,12.1067
9750.488,12.13277
9752.416,12.13693
9754.345,12.11513
9756.273,12.10749
9758.202,12.12059
9760.131,12.12583
9762.059,12.12838
9763.987,12.11646
9765.916,12.11918
9767.845,12.11797
9769.773,12.12622
9771.701,12.12833
9773.63,12.12894
9775.559,12.14265
9777.487,12.14883
9779.415,12.13348
9781.344,12.17019
9783.272,12.17247
9785.201,12.13316
9787.13,12.15262
9789.058,12.17865
9790.986,12.18026
9792.915,12.16398
9794.844,12.17332
9796.771,12.17779
9798.7,12.17112
9800.629,12.17156
9802.558,12.1753
9804.486,12.16623
9806.414,12.16252
9808.343,12.16066
9810.271,12.16954
9812.2,12.16486
9814.129,12.15179
9816.057,12.1572
9817.985,12.16777
9819.914,12.17747
9821.843,12.17234
9823.771,12.16637
9825.699,12.14927
9827.628,12.13197
9829.557,12.15454
9831.485,12.16998
9833.413,12.17214
9835.342,12.19513
9837.271,12.20456
9839.199,12.20503
9841.127,12.20756
9843.056,12.21678
9844.984,12.22517
9846.913,12.21851
9848.842,12.2205
9850.77,12.25867
9852.698,12.26954
9854.627,12.26834
9856.556,12.27846
9858.484,12.27246
9860.412,12.28848
9862.341,12.30344
9864.27,12.32514
9866.198,12.32468
9868.126,12.30238
9870.055,12.29432
9871.983,12.30663
9873.912,12.30625
9875.841,12.33941
9877.769,12.39297
9879.697,12.39345
9881.626,12.37048
9883.555,12.36849
9885.482,12.37256
9887.411,12.40564
9889.34,12.40489
9891.269,12.40592
9893.197,12.41728
9895.125,12.43311
9897.054,12.4396
9898.982,12.43258
9900.911,12.43019
9902.84,12.44933
9904.768,12.4547
9906.696,12.45823
9908.625,12.46823
9910.554,12.48645
9912.481,12.47991
9914.41,12.46971
9916.339,12.49448
9918.268,12.51284
9920.196,12.49575
9922.124,12.51686
9924.053,12.51633
9925.981,12.52565
9927.91,12.54534
9929.838,12.53019
9931.767,12.53162
9933.695,12.51246
9935.624,12.52592
9937.553,12.56462
9939.48,12.59044
9941.409,12.59267
9943.338,12.59725
9945.267,12.60433
9947.195,12.5995
9949.123,12.59219
9951.052,12.58966
9952.98,12.6075
9954.909,12.61425
9956.837,12.64232
9958.766,12.63768
9960.694,12.61458
9962.623,12.6386
9964.552,12.67087
9966.479,12.67056
9968.408,12.68043
9970.337,12.68875
9972.266,12.67031
9974.193,12.66652
9976.122,12.68669
9978.051,12.67374
9979.979,12.6734
9981.908,12.67353
9983.836,12.68973
9985.765,12.6726
9987.693,12.67263
9989.622,12.67317
9991.551,12.69959
9993.479,12.71995
9995.407,12.71045
9997.336,12.72528
9999.265,12.71681
10001.19,12.69847
10003.12,12.69436
10005.05,12.70214
10006.98,12.70546
10008.91,12.70613
10010.83,12.72573
10012.76,12.7444
10014.69,12.75673
10016.62,12.74379
10018.55,12.73365
10020.48,12.74435
10022.41,12.74685
10024.33,12.74201
10026.26,12.73066
10028.19,12.73368
10030.12,12.75862
10032.05,12.75424
10033.98,12.77233
10035.91,12.77303
10037.83,12.76564
10039.76,12.77642
10041.69,12.81553
10043.62,12.83893
10045.55,12.81178
10047.48,12.79451
10049.41,12.80726
10051.33,12.81623
10053.26,12.81237
10055.19,12.82386
10057.12,12.84447
10059.05,12.84005
10060.98,12.83166
10062.9,12.82057
10064.83,12.77958
10066.76,12.7916
10068.69,12.81213
10070.62,12.8421
10072.55,12.85353
10074.48,12.83889
10076.4,12.85317
10078.33,12.8827
10080.26,12.87924
10082.19,12.85805
10084.12,12.85596
10086.05,12.87473
10087.98,12.87102
10089.9,12.84986
10091.83,12.86224
10093.76,12.88762
10095.69,12.8619
10097.62,12.87152
10099.55,12.89696
10101.47,12.89923
10103.4,12.88475
10105.33,12.87725
10107.26,12.86387
10109.19,12.89705
10111.12,12.89087
10113.05,12.8674
10114.97,12.85975
10116.9,12.88851
10118.83,12.90586
10120.76,12.90001
10122.69,12.9278
10124.62,12.93465
10126.54,12.93812
10128.47,12.92542
10130.4,12.9185
10132.33,12.90469
10134.26,12.89905
10136.19,12.89025
10138.12,12.90926
10140.04,12.91716
10141.97,12.9107
10143.9,12.917
10145.83,12.94305
10147.76,12.94699
10149.69,12.91593
10151.62,12.89098
10153.54,12.87649
10155.47,12.88937
10157.4,12.90012
10159.33,12.92103
10161.26,12.94775
10163.19,12.94889
10165.12,12.93634
10167.04,12.92705
10168.97,12.92392
10170.9,12.93741
10172.83,12.95994
10174.76,12.95687
10176.69,12.93999
10178.61,12.89342
10180.54,12.87525
10182.47,12.93656
10184.4,12.94125
10186.33,12.92938
10188.26,12.94291
10190.19,12.94587
10192.11,12.91263
10194.04,12.92622
10195.97,12.94971
10197.9,12.94311
10199.83,12.93973
10201.76,12.9335
10203.69,12.90477
10205.61,12.91112
10207.54,12.93939
10209.47,12.95446
10211.4,12.97785
10213.33,12.94285
10215.26,12.91566
10217.18,12.93928
10219.11,12.95379
10221.04,12.97692
10222.97,12.95238
10224.9,12.94673
10226.83,12.95221
10228.76,12.96742
10230.68,12.95542
10232.61,12.92221
10234.54,12.91429
10236.47,12.92338
10238.4,12.90318
10240.33,12.91666
10242.25,12.93912
10244.18,12.92666
10246.11,12.90916
10248.04,12.89053
10249.97,12.92372
10251.9,12.94841
10253.83,12.94458
10255.75,12.92726
10257.68,12.90413
10259.61,12.90951
10261.54,12.93101
10263.47,12.92521
10265.4,12.93201
10267.33,12.95057
10269.25,12.95757
10271.18,12.92789
10273.11,12.89364
10275.04,12.93203
10276.97,12.96707
10278.9,12.95119
10280.83,12.92639
10282.75,12.87739
10284.68,12.86969
10286.61,12.91601
10288.54,12.92255
10290.47,12.91848
10292.4,12.91592
10294.32,12.91788
10296.25,12.9058
10298.18,12.91721
10300.11,12.93363
10302.04,12.91205
10303.97,12.90125
10305.9,12.91993
10307.82,12.91762
10309.75,12.87957
10311.68,12.87261
10313.61,12.86958
10315.54,12.89845
10317.47,12.9116
10319.4,12.88714
10321.32,12.88352
10323.25,12.91914
10325.18,12.91843
10327.11,12.90112
10329.04,12.89967
10330.97,12.90559
10332.89,12.89484
10334.82,12.89757
10336.75,12.90574
10338.68,12.90247
10340.61,12.90955
10342.54,12.89905
10344.47,12.88143
10346.39,12.89826
10348.32,12.89203
10350.25,12.87234
10352.18,12.87041
10354.11,12.87228
10356.04,12.88737
10357.96,12.89062
10359.89,12.88263
10361.82,12.86134
10363.75,12.8766
10365.68,12.91
10367.61,12.89611
10369.54,12.85377
10371.46,12.85331
10373.39,12.86479
10375.32,12.86381
10377.25,12.87214
10379.18,12.88244
10381.11,12.90717
10383.04,12.93594
10384.96,12.89151
10386.89,12.88547
10388.82,12.87997
10390.75,12.83714
10392.68,12.81646
10394.61,12.84449
10396.54,12.84509
10398.46,12.79574
10400.39,12.78938
10402.32,12.83528
10404.25,12.81963
10406.18,12.83479
10408.11,12.85068
10410.03,12.85097
10411.96,12.82127
10413.89,12.84701
10415.82,12.84037
10417.75,12.84499
10419.68,12.85357
10421.61,12.86811
10423.53,12.87241
10425.46,12.84656
10427.39,12.83448
10429.32,12.79623
10431.25,12.78832
10433.18,12.82989
10435.1,12.82551
10437.03,12.79667
10438.96,12.77347
10440.89,12.7459
10442.82,12.8071
10444.75,12.84513
10446.68,12.81254
10448.6,12.78445
10450.53,12.7716
10452.46,12.79211
10454.39,12.82611
10456.32,12.80687
10458.25,12.76822
10460.18,12.78215
10462.1,12.76277
10464.03,12.74728
10465.96,12.73708
10467.89,12.74406
10469.82,12.7307
10471.75,12.72891
10473.67,12.72375
10475.6,12.72102
10477.53,12.73041
10479.46,12.7182
10481.39,12.70894
10483.32,12.71024
10485.25,12.71078
10487.17,12.69015
10489.1,12.67495
10491.03,12.6746
10492.96,12.67165
10494.89,12.66269
10496.82,12.64071
10498.75,12.62808
10500.67,12.63342
10502.6,12.63239
10504.53,12.62707
10506.46,12.65461
10508.39,12.64004
10510.32,12.63182
10512.25,12.63172
10514.17,12.62284
10516.1,12.59672
10518.03,12.60107
10519.96,12.57282
10521.89,12.54091
10523.82,12.56349
10525.74,12.54296
10527.67,12.50603
10529.6,12.49986
10531.53,12.48927
10533.46,12.51583
10535.39,12.52006
10537.32,12.52862
10539.24,12.52684
10541.17,12.46086
10543.1,12.45815
10545.03,12.44222
10546.96,12.38719
10548.89,12.40486
10550.81,12.41781
10552.74,12.40265
10554.67,12.38665
10556.6,12.33886
10558.53,12.32719
10560.46,12.33325
10562.39,12.32782
10564.31,12.29505
10566.24,12.27351
10568.17,12.25375
10570.1,12.23957
10572.03,12.24997
10573.96,12.24103
10575.89,12.22407
10577.81,12.14892
10579.74,12.10896
10581.67,12.13422
10583.6,12.13992
10585.53,12.10899
10587.46,12.1188
10589.38,12.0967
10591.31,12.06591
10593.24,12.07395
10595.17,12.0811
10597.1,12.02935
10599.03,11.96193
10600.96,11.94958
10602.88,11.93858
10604.81,11.89851
10606.74,11.90376
10608.67,11.92058
10610.6,11.89643
10612.53,11.83668
10614.46,11.80521
10616.38,11.76549
10618.31,11.7654
10620.24,11.70657
10622.17,11.67616
10624.1,11.67358
10626.03,11.67342
10627.96,11.68403
10629.88,11.64099
10631.81,11.56672
10633.74,11.53106
10635.67,11.47235
10637.6,11.47064
10639.53,11.46957
10641.45,11.44496
10643.38,11.40739
10645.31,11.38671
10647.24,11.38317
10649.17,11.35394
10651.1,11.28046
10653.03,11.27896
10654.95,11.29681
10656.88,11.25278
10658.81,11.19413
10660.74,11.1626
10662.67,11.1468
10664.6,11.15063
10666.52,11.14232
10668.45,11.07281
10670.38,11.02926
10672.31,11.00958
10674.24,10.98829
10676.17,10.94208
10678.1,10.95627
10680.02,10.95676
10681.95,10.94219
10683.88,10.90822
10685.81,10.83542
10687.74,10.83036
10689.67,10.83245
10691.59,10.81649
10693.52,10.80702
10695.45,10.77343
10697.38,10.76035
10699.31,10.75381
10701.24,10.73822
10703.17,10.75441
10705.09,10.77082
10707.02,10.7605
10708.95,10.76762
10710.88,10.7688
10712.81,10.7245
10714.74,10.70403
10716.67,10.69969
10718.59,10.70038
10720.52,10.66384
10722.45,10.69303
10724.38,10.69907
10726.31,10.66797
10728.24,10.68072
10730.17,10.68204
10732.09,10.65309
10734.02,10.69016
10735.95,10.70389
10737.88,10.70792
10739.81,10.72367
10741.74,10.72584
10743.67,10.71298
10745.59,10.67688
10747.52,10.67548
10749.45,10.73493
10751.38,10.74179
10753.31,10.73474
10755.24,10.76483
10757.16,10.78879
10759.09,10.7726
10761.02,10.76999
10762.95,10.7827
10764.88,10.79714
10766.81,10.81225
10768.74,10.8091
10770.66,10.84435
10772.59,10.89941
10774.52,10.89692
10776.45,10.8732
10778.38,10.87669
10780.31,10.90287
10782.23,10.94917
10784.16,10.98057
10786.09,10.98068
10788.02,11.0075
10789.95,11.00393
10791.88,10.9977
10793.81,11.04096
10795.73,11.06972
10797.66,11.07508
10799.59,11.13848
10801.52,11.15916
10803.45,11.13761
10805.38,11.10263
10807.3,11.16812
10809.23,11.21417
10811.16,11.23909
10813.09,11.22815
10815.02,11.24501
10816.95,11.22964
10818.88,11.25263
10820.8,11.31884
10822.73,11.36057
10824.66,11.34161
10826.59,11.35854
10828.52,11.35411
10830.45,11.33859
10832.38,11.39633
10834.3,11.43764
10836.23,11.45382
10838.16,11.50534
10840.09,11.49907
10842.02,11.56366
10843.95,11.553
10845.88,11.54404
10847.8,11.55592
10849.73,11.54655
10851.66,11.58656
10853.59,11.58154
10855.52,11.57901
10857.45,11.60928
10859.38,11.67423
10861.3,11.72421
10863.23,11.71725
10865.16,11.70362
10867.09,11.75531
10869.02,11.7472
10870.95,11.7687
10872.87,11.78105
10874.8,11.76935
10876.73,11.83081
10878.66,11.88396
10880.59,11.89823
10882.52,11.89043
10884.45,11.93432
10886.37,11.95927
10888.3,11.95298
10890.23,11.97008
10892.16,12.06831
10894.09,12.06817
10896.02,12.01476
10897.94,11.99233
10899.87,12.04109
10901.8,12.1077
10903.73,12.0816
10905.66,12.04941
10907.59,12.14332
10909.52,12.13444
10911.44,12.12047
10913.37,12.22218
10915.3,12.23094
10917.23,12.21652
10919.16,12.21888
10921.09,12.16576
10923.01,12.21886
10924.94,12.23288
10926.87,12.18471
10928.8,12.17863
10930.73,12.24938
10932.66,12.28124
10934.59,12.34125
10936.51,12.38831
10938.44,12.33781
10940.37,12.28396
10942.3,12.30395
10944.23,12.37635
10946.16,12.33675
10948.09,12.33823
10950.01,12.41991
10951.94,12.45138
10953.87,12.42095
10955.8,12.42744
10957.73,12.49881
10959.66,12.47696
10961.58,12.48275
10963.51,12.49557
10965.44,12.50337
10967.37,12.5412
10969.3,12.56141
10971.23,12.59368
10973.16,12.6059
10975.08,12.56063
10977.01,12.54671
10978.94,12.54315
10980.87,12.59193
10982.8,12.61107
10984.73,12.60488
10986.66,12.6521
10988.58,12.6641
10990.51,12.70923
10992.44,12.69966
10994.37,12.63579
10996.3,12.69578
10998.23,12.71987
11000.16,12.70344
11002.08,12.77418
11004.01,12.76189
11005.94,12.73493
11007.87,12.7253
11009.8,12.75228
11011.73,12.74511
11013.65,12.79385
11015.58,12.84411
11017.51,12.82093
11019.44,12.78737
11021.37,12.80218
11023.3,12.84908
11025.23,12.87344
11027.15,12.86541
11029.08,12.88667
11031.01,12.92125
11032.94,12.90279
11034.87,12.85184
11036.8,12.82214
11038.72,12.90627
11040.65,12.94577
11042.58,12.95488
11044.51,12.90798
11046.44,12.9129
11048.37,12.92717
11050.3,12.95056
11052.22,12.92768
11054.15,12.97197
11056.08,12.98137
11058.01,12.96569
11059.94,13.00005
11061.87,13.01686
11063.79,13.01929
11065.72,12.96121
11067.65,12.96639
11069.58,13.017
11071.51,13.01793
11073.44,12.99845
11075.37,12.98058
11077.29,12.99286
11079.22,13.03904
11081.15,13.01634
11083.08,13.00847
11085.01,13.01312
11086.94,13.06225
11088.87,13.03619
11090.79,13.014
11092.72,13.03451
11094.65,13.01406
11096.58,13.01169
11098.51,13.05802
11100.44,13.05992
11102.37,13.0685
11104.29,13.06781
11106.22,13.09098
11108.15,13.12216
11110.08,13.02022
11112.01,12.98563
11113.94,13.0096
11115.87,13.07281
11117.79,13.06071
11119.72,13.05617
11121.65,13.0946
11123.58,13.10014
11125.51,13.06736
11127.44,13.06366
11129.36,13.04138
11131.29,13.03116
11133.22,13.02259
11135.15,13.05012
11137.08,13.05383
11139.01,13.0213
11140.94,13.04287
11142.86,13.11779
11144.79,13.13806
11146.72,13.11936
11148.65,13.08808
11150.58,13.10687
11152.51,13.10073
11154.43,13.12451
11156.36,13.17655
11158.29,13.14492
11160.22,13.14237
11162.15,13.21169
11164.08,13.12522
11166.01,13.12198
11167.93,13.16887
11169.86,13.15372
11171.79,13.11868
11173.72,13.13572
11175.65,13.16724
11177.58,13.21664
11179.5,13.22878
11181.43,13.21013
11183.36,13.19576
11185.29,13.16777
11187.22,13.19017
11189.15,13.20573
11191.08,13.18265
11193.0,13.21233
11194.93,13.28338
11196.86,13.26219
11198.79,13.24417
11200.72,13.19245
11202.65,13.23194
11204.58,13.30409
11206.5,13.24571
11208.43,13.31386
11210.36,13.34811
11212.29,13.36981
11214.22,13.4061
11216.15,13.39929
11218.08,13.38956
11220.0,13.38993
11221.93,13.36921
11223.86,13.39504
11225.79,13.3484
11227.72,13.33508
11229.65,13.28565
11231.58,13.30952
11233.5,13.36125
11235.43,13.39968
11237.36,13.35704
11239.29,13.33913
11241.22,13.36591
11243.15,13.33958
11245.07,13.39284
11247.0,13.4252
11248.93,13.43615
11250.86,13.43727
11252.79,13.46426
11254.72,13.4311
11256.65,13.45825
11258.57,13.51294
11260.5,13.52404
11262.43,13.49048
11264.36,13.44345
11266.29,13.47548
11268.22,13.48322
11270.14,13.4869
11272.07,13.46694
11274.0,13.4087
11275.93,13.39469
11277.86,13.43442
11279.79,13.41306
11281.72,13.50897
11283.64,13.55582
11285.57,13.49892
11287.5,13.50943
11289.43,13.48849
11291.36,13.44095
11293.29,13.39485
11295.21,13.36396
11297.14,13.41832
11299.07,13.47275
11301.0,13.50838
11302.93,13.47936
11304.86,13.52623
11306.79,13.54038
11308.71,13.57178
11310.64,13.59402
11312.57,13.56053
11314.5,13.52065
11316.43,13.47569
11318.36,13.49597
11320.29,13.53765
11322.21,13.5324
11324.14,13.47982
11326.07,13.46838
11328.0,13.56589
11329.93,13.67111
11331.86,13.60471
11333.79,13.5926
11335.71,13.60701
11337.64,13.58185
11339.57,13.60744
11341.5,13.57133
11343.43,13.58597
11345.36,13.65637
11347.28,13.74142
11349.21,13.69481
11351.14,13.6267
11353.07,13.6488
11355.0,13.70459
11356.93,13.69543
11358.86,13.62423
11360.78,13.54603
11362.71,13.5747
11364.64,13.56311
11366.57,13.54295
11368.5,13.51901
11370.43,13.5267
11372.36,13.51639
11374.28,13.49906
11376.21,13.57357
11378.14,13.61568
11380.07,13.62426
11382.0,13.65988
11383.93,13.68227
11385.85,13.67774
11387.78,13.58026
11389.71,13.56259
11391.64,13.63291
11393.57,13.68962
11395.5,13.75624
11397.43,13.73283
11399.35,13.65311
11401.28,13.60826
11403.21,13.62006
11405.14,13.61208
11407.07,13.67915
11409.0,13.73049
11410.92,13.70729
11412.85,13.70091
11414.78,13.70258
11416.71,13.7567
11418.64,13.81766
11420.57,13.80676
11422.5,13.74011
11424.42,13.69996
11426.35,13.6817
11428.28,13.7191
11430.21,13.77867
11432.14,13.74603
11434.07,13.6799
11436.0,13.74312
11437.92,13.7731
11439.85,13.74324
11441.78,13.71327
11443.71,13.66546
11445.64,13.53412
11447.57,13.60274
11449.5,13.77339
11451.42,13.82119
11453.35,13.73594
11455.28,13.71286
11457.21,13.76794
11459.14,13.76748
11461.07,13.70115
11462.99,13.70616
11464.92,13.76293
11466.85,13.73231
11468.78,13.69103
11470.71,13.74204
11472.64,13.79875
11474.57,13.74534
11476.49,13.77401
11478.42,13.88841
11480.35,13.878
11482.28,13.76049
11484.21,13.6619
11486.14,13.71539
11488.07,13.81052
11489.99,13.81472
11491.92,13.8015
11493.85,13.84958
11495.78,13.7988
11497.71,13.72802
11499.64,13.76491
11501.56,13.80332
11503.49,13.78105
11505.42,13.70313
11507.35,13.73046
11509.28,13.81102
11511.21,13.73426
11513.14,13.79726
11515.06,13.80507
11516.99,13.78415
11518.92,13.75618
11520.85,13.8028
11522.78,13.75639
11524.71,13.7684
11526.63,13.89831
11528.56,13.85845
11530.49,13.73896
11532.42,13.74974
11534.35,13.79575
11536.28,13.81272
11538.21,13.82411
11540.13,13.78154
11542.06,13.73817
11543.99,13.78417
11545.92,13.85576
11547.85,13.90674
11549.78,13.82648
11551.71,13.83491
11553.63,13.83624
11555.56,13.76942
11557.49,13.81841
11559.42,13.88484
11561.35,13.79517
11563.28,13.75429
11565.21,13.72132
11567.13,13.70407
11569.06,13.70907
11570.99,13.77449
11572.92,13.80416
11574.85,13.81194
11576.78,13.83211
11578.7,13.81696
11580.63,13.81606
11582.56,13.82808
11584.49,13.87559
11586.42,13.94644
11588.35,13.94666
11590.28,13.81645
11592.2,13.7928
11594.13,13.88967
11596.06,13.93411
11597.99,13.89295
11599.92,13.92385
11601.85,13.91015
11603.78,13.85725
11605.7,13.87828
11607.63,13.86684
11609.56,13.91314
11611.49,13.90647
11613.42,13.86845
11615.35,13.83974
11617.27,13.84545
11619.2,13.88107
11621.13,13.93285
11623.06,14.0318
11624.99,14.00829
11626.92,13.87422
11628.85,13.80351
11630.77,13.87778
11632.7,13.93426
11634.63,13.95953
11636.56,13.98796
11638.49,13.95099
11640.42,13.9424
11642.34,13.87273
11644.27,13.86369
11646.2,13.86086
11648.13,13.89444
11650.06,13.85205
11651.99,13.85398
11653.92,13.93681
11655.84,13.95108
11657.77,13.96255
11659.7,13.97386
11661.63,13.89905
11663.56,13.75321
11665.49,13.75545
11667.42,13.82775
11669.34,13.97363
11671.27,13.99538
11673.2,13.93271
11675.13,13.95523
11677.06,13.91541
11678.99,13.90863
11680.92,13.91541
11682.84,13.9753
11684.77,13.95025
11686.7,13.89774
11688.63,13.90407
11690.56,13.85891
11692.49,13.85209
11694.41,13.93299
11696.34,13.90189
11698.27,13.90029
11700.2,13.92048
11702.13,13.8471
11704.06,13.90014
11705.99,14.00383
11707.91,13.84312
11709.84,13.84939
11711.77,13.96294
11713.7,13.94261
11715.63,13.90516
11717.56,13.92401
11719.48,13.98418
11721.41,13.95
11723.34,13.97783
11725.27,14.04636
11727.2,13.92237
11729.13,13.74963
11731.06,13.8625
11732.98,13.87437
11734.91,13.88213
11736.84,13.92467
11738.77,13.95711
11740.7,13.99537
11742.63,14.03765
11744.56,14.02224
11746.48,13.92685
11748.41,13.94064
11750.34,13.9804
11752.27,13.95732
11754.2,13.93454
11756.13,13.99695
11758.05,13.93685
11759.98,13.95177
11761.91,14.02452
11763.84,13.98366
11765.77,13.96585
11767.7,13.99964
11769.63,13.96546
11771.55,13.94157
11773.48,13.95195
11775.41,13.91235
11777.34,13.99023
11779.27,13.94201
11781.2,13.89205
11783.13,13.80845
11785.05,13.85213
11786.98,13.82831
11788.91,13.8303
11790.84,13.92879
11792.77,13.91003
11794.7,13.74579
11796.63,13.70199
11798.55,13.7651
11800.48,13.82133
11802.41,13.88581
11804.34,13.85587
11806.27,13.72952
11808.2,13.92383
11810.12,13.98241
11812.05,13.94076
11813.98,13.83337
11815.91,13.90907
11817.84,13.98833
11819.77,13.93452
11821.7,13.94663
11823.62,13.95488
11825.55,13.87807
11827.48,13.91625
11829.41,13.87141
11831.34,13.87247
11833.27,13.89568
11835.19,13.94573
11837.12,13.78369
11839.05,13.74096
11840.98,13.96611
11842.91,14.16114
11844.84,14.00251
11846.77,13.8571
11848.69,13.79662
11850.62,13.87257
11852.55,14.04083
11854.48,13.91292
11856.41,13.76591
11858.34,13.91655
11860.27,13.92584
11862.19,13.78659
11864.12,13.89452
11866.05,13.91646
11867.98,13.9857
11869.91,13.93654
11871.84,13.70694
11873.76,13.76022
11875.69,13.81118
11877.62,13.88773
11879.55,13.8796
11881.48,13.82671
11883.41,13.79589
11885.34,13.75198
11887.26,13.8055
11889.19,13.8232
11891.12,13.82347
11893.05,13.74204
11894.98,13.78554
11896.91,13.80409
11898.83,13.84432
11900.76,13.84757
11902.69,13.78991
11904.62,13.81612
11906.55,13.91766
11908.48,13.94489
11910.41,13.87187
11912.33,13.80367
11914.26,13.6637
11916.19,13.73306
11918.12,13.82756
11920.05,13.93923
11921.98,14.06366
11923.91,13.98707
11925.83,13.90278
11927.76,13.90646
11929.69,13.96983
11931.62,13.98846
11933.55,13.9136
11935.48,13.83627
11937.41,13.75822
11939.33,13.78696
11941.26,13.79643
11943.19,13.89569
11945.12,14.02537
11947.05,13.94481
11948.98,13.90713
11950.9,13.90394
11952.83,13.86222
11954.76,13.81324
11956.69,13.82463
11958.62,13.96646
11960.55,13.99691
11962.48,13.8004
11964.4,13.84099
11966.33,13.93902
11968.26,13.97929
11970.19,13.95686
11972.12,13.71427
11974.05,13.73008
11975.98,13.72735
11977.9,13.72069
11979.83,13.82775
11981.76,13.86412
11983.69,13.73541
11985.62,13.75178
11987.55,13.93045
11989.47,13.88758
11991.4,13.72058
11993.33,13.76422
11995.26,13.80972
11997.19,13.8601
11999.12,13.99642
