Wavenumber,Intensity
3999.706,2.287548
4001.634,2.288683
4003.563,2.28716
4005.491,2.287688
4007.42,2.290229
4009.348,2.287401
4011.277,2.286081
4013.205,2.285728
4015.134,2.286988
4017.062,2.289184
4018.991,2.288394
4020.919,2.292271
4022.848,2.296335
4024.776,2.297648
4026.705,2.296041
4028.633,2.293442
4030.562,2.297171
4032.49,2.299379
4034.419,2.301116
4036.347,2.302634
4038.276,2.303042
4040.204,2.302332
4042.133,2.303689
4044.061,2.306475
4045.99,2.305661
4047.918,2.305121
4049.847,2.306538
4051.775,2.304475
4053.704,2.30638
4055.632,2.310178
4057.561,2.310644
4059.489,2.308494
4061.418,2.305484
4063.346,2.308212
4065.275,2.308249
4067.203,2.307595
4069.132,2.312857
4071.06,2.317029
4072.989,2.31507
4074.917,2.313888
4076.846,2.314643
4078.774,2.31565
4080.703,2.317107
4082.631,2.317819
4084.56,2.318158
4086.488,2.319984
4088.417,2.316838
4090.345,2.315169
4092.274,2.314603
4094.202,2.31609
4096.131,2.320037
4098.059,2.319737
4099.988,2.321046
4101.916,2.3233
4103.845,2.320901
4105.773,2.318629
4107.702,2.31941
4109.63,2.320807
4111.559,2.32351
4113.487,2.322181
4115.416,2.325022
4117.344,2.327255
4119.273,2.325047
4121.201,2.321351
4123.13,2.32233
4125.058,2.324736
4126.987,2.325437
4128.915,2.324419
4130.844,2.323875
4132.772,2.327935
4134.701,2.328027
4136.629,2.325648
4138.558,2.322684
4140.486,2.323355
4142.415,2.327697
4144.343,2.328233
4146.271,2.327598
4148.2,2.326463
4150.129,2.325609
4152.057,2.323963
4153.986,2.326137
4155.914,2.327965
4157.843,2.327087
4159.771,2.326168
4161.7,2.325818
4163.628,2.330109
4165.557,2.332928
4167.485,2.331869
4169.414,2.334034
4171.342,2.33566
4173.271,2.335771
4175.199,2.336998
4177.127,2.341234
4179.056,2.342928
4180.985,2.341935
4182.913,2.343189
4184.842,2.34352
4186.77,2.345706
4188.699,2.345887
4190.627,2.349567
4192.556,2.35102
4194.484,2.350955
4196.413,2.352524
4198.341,2.357572
4200.27,2.363076
4202.198,2.365297
4204.126,2.364823
4206.055,2.36584
4207.983,2.364698
4209.912,2.369233
4211.841,2.372155
4213.769,2.372393
4215.698,2.375687
4217.626,2.377881
4219.555,2.380515
4221.483,2.380625
4223.412,2.380115
4225.34,2.382707
4227.269,2.384229
4229.197,2.382963
4231.125,2.386858
4233.054,2.38945
4234.982,2.390377
4236.911,2.390603
4238.84,2.388414
4240.768,2.388085
4242.697,2.391337
4244.625,2.390384
4246.554,2.388946
4248.482,2.390014
4250.411,2.389869
4252.339,2.390276
4254.268,2.394323
4256.196,2.395521
4258.125,2.396868
4260.053,2.398637
4261.981,2.397912
4263.91,2.400784
4265.838,2.403372
4267.767,2.40379
4269.696,2.405235
4271.624,2.407879
4273.553,2.407935
4275.481,2.410873
4277.41,2.416455
4279.338,2.413845
4281.267,2.411384
4283.195,2.411237
4285.124,2.410347
4287.052,2.414141
4288.98,2.414733
4290.909,2.414135
4292.837,2.413634
4294.766,2.413208
4296.694,2.414132
4298.623,2.415213
4300.552,2.416763
4302.48,2.416657
4304.409,2.417205
4306.337,2.418866
4308.266,2.418352
4310.194,2.411973
4312.123,2.407068
4314.051,2.408216
4315.979,2.409069
4317.908,2.406213
4319.836,2.402385
4321.765,2.400865
4323.693,2.401922
4325.622,2.401309
4327.551,2.401252
4329.479,2.405755
4331.408,2.408657
4333.336,2.410076
4335.265,2.411564
4337.193,2.409507
4339.122,2.409298
4341.05,2.411734
4342.979,2.411516
4344.907,2.41019
4346.835,2.414357
4348.764,2.416246
4350.692,2.416505
4352.621,2.420155
4354.549,2.423552
4356.478,2.421999
4358.407,2.418001
4360.335,2.421246
4362.264,2.422251
4364.192,2.420173
4366.121,2.420207
4368.049,2.425231
4369.978,2.43192
4371.906,2.430541
4373.834,2.428712
4375.763,2.427095
4377.691,2.427085
4379.62,2.427049
4381.548,2.429367
4383.477,2.43226
4385.405,2.431331
4387.334,2.430104
4389.263,2.431341
4391.191,2.432846
4393.12,2.433304
4395.048,2.43336
4396.977,2.439018
4398.905,2.440235
4400.833,2.437758
4402.762,2.436695
4404.69,2.437248
4406.619,2.443162
4408.547,2.446916
4410.476,2.452173
4412.404,2.455106
4414.333,2.456553
4416.262,2.461427
4418.19,2.465184
4420.119,2.467845
4422.047,2.472702
4423.976,2.47901
4425.904,2.484181
4427.833,2.487993
4429.761,2.492711
4431.689,2.499605
4433.618,2.503844
4435.546,2.51029
4437.475,2.517757
4439.403,2.525798
4441.332,2.532685
4443.26,2.534812
4445.189,2.540013
4447.117,2.548852
4449.046,2.5573
4450.975,2.560085
4452.903,2.567055
4454.832,2.575157
4456.76,2.582398
4458.688,2.589243
4460.617,2.59876
4462.545,2.608634
4464.474,2.614514
4466.402,2.617568
4468.331,2.622008
4470.259,2.628479
4472.188,2.637491
4474.116,2.646242
4476.045,2.656047
4477.974,2.661525
4479.902,2.666492
4481.831,2.673012
4483.759,2.67987
4485.688,2.686775
4487.616,2.694061
4489.544,2.701497
4491.473,2.708846
4493.401,2.713095
4495.33,2.719321
4497.258,2.72736
4499.187,2.734618
4501.115,2.741794
4503.044,2.7523
4504.972,2.759805
4506.901,2.765105
4508.83,2.776525
4510.758,2.784976
4512.687,2.794178
4514.615,2.801425
4516.543,2.804493
4518.472,2.815323
4520.4,2.826489
4522.329,2.833371
4524.257,2.837711
4526.186,2.845472
4528.114,2.854908
4530.043,2.86466
4531.971,2.875118
4533.9,2.881641
4535.828,2.890524
4537.757,2.90322
4539.686,2.913902
4541.614,2.922693
4543.542,2.931028
4545.471,2.940311
4547.399,2.952355
4549.328,2.964293
4551.256,2.973229
4553.185,2.981607
4555.113,2.990745
4557.042,3.000256
4558.97,3.013404
4560.899,3.025075
4562.827,3.032056
4564.756,3.039707
4566.685,3.051346
4568.613,3.06066
4570.542,3.070356
4572.47,3.078527
4574.398,3.086205
4576.327,3.096668
4578.255,3.102326
4580.184,3.107784
4582.112,3.112969
4584.041,3.119542
4585.969,3.127105
4587.898,3.135864
4589.826,3.143256
4591.755,3.148505
4593.683,3.152613
4595.612,3.157955
4597.54,3.163213
4599.469,3.166859
4601.397,3.169251
4603.326,3.176055
4605.254,3.181661
4607.183,3.182912
4609.111,3.186103
4611.04,3.191289
4612.968,3.193046
4614.897,3.198155
4616.825,3.205622
4618.754,3.210295
4620.682,3.215866
4622.611,3.216839
4624.539,3.221367
4626.468,3.226738
4628.396,3.229208
4630.325,3.234179
4632.253,3.237018
4634.182,3.240206
4636.11,3.24248
4638.039,3.241599
4639.967,3.243004
4641.896,3.243505
4643.824,3.24632
4645.753,3.247745
4647.681,3.2458
4649.61,3.245193
4651.538,3.244257
4653.467,3.242145
4655.396,3.237258
4657.324,3.230488
4659.252,3.222682
4661.181,3.214732
4663.109,3.2105
4665.038,3.20519
4666.966,3.203735
4668.895,3.208113
4670.823,3.213809
4672.752,3.222661
4674.68,3.233785
4676.609,3.247257
4678.537,3.255934
4680.466,3.262967
4682.394,3.275472
4684.323,3.281247
4686.251,3.285809
4688.18,3.292186
4690.108,3.293079
4692.037,3.297506
4693.965,3.301797
4695.894,3.300664
4697.822,3.302668
4699.751,3.306098
4701.679,3.306327
4703.608,3.303435
4705.536,3.305908
4707.465,3.308064
4709.393,3.307717
4711.322,3.305649
4713.25,3.300444
4715.179,3.299038
4717.107,3.298203
4719.036,3.294104
4720.964,3.28994
4722.893,3.28229
4724.821,3.278451
4726.75,3.275748
4728.678,3.271841
4730.606,3.268536
4732.535,3.265123
4734.464,3.263371
4736.392,3.261728
4738.321,3.261575
4740.249,3.258684
4742.178,3.256197
4744.106,3.253802
4746.035,3.251014
4747.963,3.252338
4749.892,3.24981
4751.82,3.243037
4753.749,3.237085
4755.677,3.235822
4757.605,3.234285
4759.534,3.23376
4761.463,3.23046
4763.391,3.222275
4765.32,3.215524
4767.248,3.210014
4769.177,3.205894
4771.105,3.201081
4773.034,3.193084
4774.962,3.186244
4776.891,3.182821
4778.819,3.181641
4780.748,3.176327
4782.676,3.174142
4784.604,3.173076
4786.533,3.172373
4788.462,3.173863
4790.39,3.168017
4792.319,3.161685
4794.247,3.162778
4796.176,3.161709
4798.104,3.156925
4800.033,3.151308
4801.961,3.148506
4803.89,3.145361
4805.818,3.140855
4807.747,3.136213
4809.675,3.129797
4811.604,3.124618
4813.532,3.118194
4815.46,3.112555
4817.389,3.107995
4819.317,3.100359
4821.246,3.095156
4823.175,3.091718
4825.103,3.087027
4827.032,3.082516
4828.96,3.075494
4830.889,3.072321
4832.817,3.069027
4834.746,3.061729
4836.674,3.056428
4838.603,3.050391
4840.531,3.043273
4842.459,3.037948
4844.388,3.0339
4846.316,3.027571
4848.245,3.01624
4850.174,3.005289
4852.102,2.999166
4854.031,2.993876
4855.959,2.988143
4857.888,2.979706
4859.816,2.975409
4861.745,2.973755
4863.673,2.967743
4865.602,2.962416
4867.53,2.959535
4869.458,2.960752
4871.387,2.961599
4873.315,2.958903
4875.244,2.961639
4877.172,2.96398
4879.101,2.966846
4881.03,2.969407
4882.958,2.970031
4884.887,2.972049
4886.815,2.97369
4888.744,2.975835
4890.672,2.981485
4892.601,2.984889
4894.529,2.983648
4896.458,2.983262
4898.386,2.988131
4900.314,2.990837
4902.243,2.991387
4904.171,2.992634
4906.1,2.992454
4908.028,2.992782
4909.957,2.997096
4911.886,2.998239
4913.814,2.999459
4915.743,2.999188
4917.671,2.998582
4919.6,2.996178
4921.528,2.996512
4923.457,2.996027
4925.385,2.991669
4927.313,2.989719
4929.242,2.991801
4931.17,2.99381
4933.099,2.99249
4935.027,2.990059
4936.956,2.988084
4938.885,2.990192
4940.813,2.992444
4942.742,2.986686
4944.67,2.980962
4946.599,2.979609
4948.527,2.975196
4950.456,2.964339
4952.384,2.952932
4954.313,2.941022
4956.241,2.929058
4958.169,2.917473
4960.098,2.905476
4962.026,2.895762
4963.955,2.888654
4965.883,2.887756
4967.812,2.889286
4969.74,2.892871
4971.669,2.898875
4973.598,2.900349
4975.526,2.905142
4977.455,2.910071
4979.383,2.91428
4981.312,2.918894
4983.24,2.923374
4985.168,2.928879
4987.097,2.930804
4989.025,2.93372
4990.954,2.939259
4992.882,2.949667
4994.811,2.957532
4996.739,2.96356
4998.668,2.970359
5000.597,2.977064
5002.525,2.981942
5004.454,2.986954
5006.382,2.990301
5008.311,2.996873
5010.239,3.000502
5012.167,3.002317
5014.096,3.00015
5016.024,3.000025
5017.953,3.002295
5019.881,3.002963
5021.81,3.005701
5023.738,3.010136
5025.667,3.015107
5027.596,3.014993
5029.524,3.015255
5031.452,3.018836
5033.381,3.020432
5035.31,3.021972
5037.238,3.023153
5039.167,3.024471
5041.095,3.023777
5043.023,3.024279
5044.952,3.025657
5046.88,3.025601
5048.809,3.025145
5050.737,3.025446
5052.666,3.024667
5054.595,3.02129
5056.523,3.015408
5058.451,3.011596
5060.38,3.007926
5062.309,3.007385
5064.237,3.006142
5066.166,3.004525
5068.094,3.006676
5070.022,3.005547
5071.951,3.006836
5073.879,3.009487
5075.808,3.006124
5077.736,3.0055
5079.665,3.009356
5081.593,3.009029
5083.522,3.007363
5085.45,3.006697
5087.379,3.005149
5089.308,3.003268
5091.236,3.001148
5093.165,2.997412
5095.093,2.995688
5097.021,2.993326
5098.95,2.994543
5100.878,2.997692
5102.807,2.999077
5104.735,2.998361
5106.664,3.000848
5108.592,3.003573
5110.521,3.004229
5112.449,3.005456
5114.378,3.006757
5116.307,3.008924
5118.235,3.011866
5120.163,3.012279
5122.092,3.012876
5124.021,3.016591
5125.949,3.016611
5127.877,3.019179
5129.806,3.020924
5131.734,3.021741
5133.663,3.022727
5135.591,3.01934
5137.52,3.015341
5139.448,3.017858
5141.377,3.017643
5143.305,3.016272
5145.234,3.014675
5147.162,3.012255
5149.091,3.012944
5151.02,3.008501
5152.948,3.005893
5154.876,3.006057
5156.805,3.00421
5158.733,3.003185
5160.662,3.004302
5162.59,3.002036
5164.519,2.998043
5166.447,2.997176
5168.376,3.000056
5170.304,3.00068
5172.233,2.999068
5174.161,3.000606
5176.09,3.000515
5178.019,2.996955
5179.947,2.998213
5181.875,2.998311
5183.804,3.000784
5185.732,2.995603
5187.661,2.997418
5189.589,2.99606
5191.518,2.993341
5193.446,2.995608
5195.375,3.000719
5197.303,2.99728
5199.232,2.994866
5201.16,2.999212
5203.089,3.006227
5205.018,3.016841
5206.946,3.004945
5208.874,2.994485
5210.803,2.994351
5212.731,2.999325
5214.66,2.998388
5216.588,2.999234
5218.517,2.999141
5220.445,3.001606
5222.374,3.002897
5224.302,3.008976
5226.231,3.002662
5228.159,3.006391
5230.088,3.012321
5232.016,3.005721
5233.945,3.00591
5235.873,3.006454
5237.802,3.00996
5239.73,3.012073
5241.659,3.020216
5243.587,3.019271
5245.516,3.014326
5247.444,3.018684
5249.373,3.010059
5251.301,3.016717
5253.229,3.02515
5255.158,3.015055
5257.087,3.00986
5259.015,3.018463
5260.944,3.023055
5262.872,3.027044
5264.801,3.016159
5266.729,3.019745
5268.658,3.02321
5270.586,3.018889
5272.515,3.01482
5274.443,3.014021
5276.372,3.016993
5278.3,3.018936
5280.229,3.015164
5282.157,3.01656
5284.086,3.020846
5286.014,3.015799
5287.943,3.023037
5289.871,3.02241
5291.8,3.011801
5293.729,3.016265
5295.657,3.016714
5297.585,3.017996
5299.514,3.014911
5301.442,3.010769
5303.371,3.007347
5305.299,3.011066
5307.228,3.004833
5309.156,2.996586
5311.085,3.0038
5313.013,3.01092
5314.941,3.01632
5316.87,3.020651
5318.799,3.025438
5320.727,3.029544
5322.656,3.031379
5324.584,3.038202
5326.513,3.044782
5328.441,3.036012
5330.37,3.039442
5332.298,3.032717
5334.227,3.03272
5336.155,3.046405
5338.084,3.037717
5340.012,3.01441
5341.94,3.026387
5343.869,3.020561
5345.798,2.996342
5347.726,2.995961
5349.655,2.988945
5351.583,2.994008
5353.512,2.975936
5355.44,2.959322
5357.369,2.960257
5359.297,2.9559
5361.226,2.95617
5363.154,2.948232
5365.083,2.937708
5367.011,2.935018
5368.939,2.929892
5370.868,2.92493
5372.797,2.925049
5374.725,2.925504
5376.654,2.914036
5378.582,2.902452
5380.511,2.910403
5382.439,2.911974
5384.368,2.912481
5386.296,2.894665
5388.225,2.888956
5390.153,2.889255
5392.082,2.89427
5394.01,2.882979
5395.938,2.873366
5397.867,2.864525
5399.796,2.862789
5401.724,2.861293
5403.652,2.854508
5405.581,2.842112
5407.51,2.843923
5409.438,2.839699
5411.367,2.825973
5413.295,2.816411
5415.224,2.793285
5417.152,2.7888
5419.081,2.788116
5421.009,2.788689
5422.938,2.784388
5424.866,2.786582
5426.795,2.789522
5428.723,2.777452
5430.651,2.765168
5432.58,2.779444
5434.509,2.772902
5436.437,2.760475
5438.366,2.768504
5440.294,2.769554
5442.223,2.760883
5444.151,2.766249
5446.08,2.75643
5448.008,2.759848
5449.937,2.75605
5451.865,2.752566
5453.793,2.757508
5455.722,2.752384
5457.65,2.747539
5459.579,2.750014
5461.508,2.745689
5463.436,2.745037
5465.365,2.74473
5467.293,2.743806
5469.222,2.736453
5471.15,2.731336
5473.079,2.738273
5475.007,2.733545
5476.936,2.718878
5478.864,2.720617
5480.792,2.720108
5482.721,2.718704
5484.649,2.71428
5486.578,2.713001
5488.507,2.707545
5490.435,2.708249
5492.363,2.70867
5494.292,2.70299
5496.221,2.707278
5498.149,2.708554
5500.078,2.708169
5502.006,2.711227
5503.935,2.710734
5505.863,2.713392
5507.792,2.712641
5509.72,2.710759
5511.648,2.714469
5513.577,2.721573
5515.505,2.721757
5517.434,2.713908
5519.362,2.715577
5521.291,2.72149
5523.22,2.72054
5525.148,2.720526
5527.077,2.720097
5529.005,2.71882
5530.934,2.718185
5532.862,2.71663
5534.791,2.716721
5536.719,2.712843
5538.647,2.711884
5540.576,2.714393
5542.504,2.71645
5544.433,2.713526
5546.361,2.711017
5548.29,2.709659
5550.219,2.709173
5552.147,2.712366
5554.076,2.7099
5556.004,2.709728
5557.933,2.712084
5559.861,2.711612
5561.79,2.713655
5563.718,2.715695
5565.646,2.719083
5567.575,2.723921
5569.503,2.72448
5571.432,2.729882
5573.36,2.73586
5575.289,2.741125
5577.218,2.74368
5579.146,2.748378
5581.074,2.753615
5583.003,2.756969
5584.932,2.758882
5586.86,2.76016
5588.789,2.760843
5590.717,2.760016
5592.646,2.759445
5594.574,2.761476
5596.502,2.760127
5598.431,2.754139
5600.359,2.751932
5602.288,2.748154
5604.216,2.741903
5606.145,2.73696
5608.073,2.734191
5610.002,2.731476
5611.931,2.726898
5613.859,2.720192
5615.788,2.711833
5617.716,2.706178
5619.645,2.702864
5621.573,2.699213
5623.501,2.695971
5625.43,2.692811
5627.358,2.687269
5629.287,2.685527
5631.215,2.680517
5633.144,2.674497
5635.072,2.667807
5637.001,2.661167
5638.93,2.657534
5640.858,2.655227
5642.786,2.645655
5644.715,2.638084
5646.644,2.632302
5648.572,2.620041
5650.5,2.607745
5652.429,2.599163
5654.357,2.59251
5656.286,2.583463
5658.214,2.577113
5660.143,2.576338
5662.071,2.574692
5664.0,2.576096
5665.929,2.577666
5667.857,2.579324
5669.785,2.577294
5671.714,2.580558
5673.643,2.584943
5675.571,2.588959
5677.5,2.58937
5679.428,2.597671
5681.356,2.604503
5683.285,2.603868
5685.213,2.606966
5687.142,2.609715
5689.07,2.616591
5690.999,2.621464
5692.927,2.626922
5694.856,2.630744
5696.784,2.633508
5698.713,2.6395
5700.642,2.646246
5702.57,2.654928
5704.499,2.661576
5706.427,2.670056
5708.355,2.675248
5710.284,2.680931
5712.212,2.68581
5714.141,2.686189
5716.069,2.685754
5717.998,2.684728
5719.926,2.680756
5721.855,2.678389
5723.783,2.670557
5725.712,2.654977
5727.641,2.642472
5729.569,2.636702
5731.497,2.631606
5733.426,2.627239
5735.354,2.622596
5737.283,2.618478
5739.211,2.615094
5741.14,2.613822
5743.068,2.606958
5744.997,2.598269
5746.925,2.593692
5748.854,2.587952
5750.782,2.583531
5752.711,2.579749
5754.639,2.574175
5756.568,2.569993
5758.496,2.565873
5760.425,2.561543
5762.354,2.559441
5764.282,2.553293
5766.21,2.551464
5768.139,2.553643
5770.067,2.549937
5771.996,2.548644
5773.924,2.54862
5775.853,2.544559
5777.781,2.543503
5779.71,2.544662
5781.638,2.543947
5783.567,2.546995
5785.495,2.548275
5787.424,2.548585
5789.353,2.55048
5791.281,2.553969
5793.209,2.558578
5795.138,2.559983
5797.066,2.560772
5798.995,2.562694
5800.923,2.565119
5802.852,2.566528
5804.78,2.56634
5806.709,2.566861
5808.637,2.569843
5810.566,2.572256
5812.494,2.575435
5814.423,2.577949
5816.352,2.577672
5818.28,2.581546
5820.208,2.585881
5822.137,2.58911
5824.065,2.59501
5825.994,2.598689
5827.922,2.601552
5829.851,2.604453
5831.779,2.606135
5833.708,2.609817
5835.636,2.617127
5837.565,2.622802
5839.493,2.629754
5841.422,2.636329
5843.35,2.642549
5845.279,2.65265
5847.207,2.662142
5849.136,2.668321
5851.064,2.677813
5852.993,2.689757
5854.921,2.702157
5856.85,2.720288
5858.778,2.741054
5860.707,2.759058
5862.635,2.778287
5864.563,2.800681
5866.492,2.827382
5868.421,2.851484
5870.349,2.878244
5872.278,2.909507
5874.206,2.94119
5876.135,2.971893
5878.063,3.006274
5879.992,3.039687
5881.92,3.077254
5883.849,3.113544
5885.777,3.148968
5887.706,3.180806
5889.634,3.213062
5891.563,3.243018
5893.491,3.268327
5895.42,3.288212
5897.348,3.305214
5899.277,3.323416
5901.205,3.342374
5903.134,3.362073
5905.063,3.382401
5906.991,3.405059
5908.919,3.438404
5910.848,3.473112
5912.776,3.503803
5914.705,3.542251
5916.633,3.5885
5918.562,3.637457
5920.49,3.685906
5922.419,3.73668
5924.347,3.787561
5926.276,3.841758
5928.204,3.89866
5930.133,3.950238
5932.061,4.001283
5933.99,4.049774
5935.918,4.096456
5937.847,4.143065
5939.775,4.185948
5941.704,4.226599
5943.632,4.267079
5945.561,4.304408
5947.489,4.345047
5949.418,4.384594
5951.346,4.416862
5953.274,4.452069
5955.203,4.49361
5957.132,4.532239
5959.06,4.568153
5960.989,4.603949
5962.917,4.64078
5964.846,4.68052
5966.774,4.721942
5968.703,4.760951
5970.631,4.803568
5972.56,4.839676
5974.488,4.875076
5976.417,4.907793
5978.345,4.938607
5980.273,4.969598
5982.202,5.004352
5984.131,5.041214
5986.059,5.074338
5987.988,5.102631
5989.916,5.137616
5991.845,5.167516
5993.773,5.193715
5995.702,5.217884
5997.63,5.248431
5999.559,5.277386
6001.487,5.305861
6003.416,5.331783
6005.344,5.355611
6007.272,5.379929
6009.201,5.408099
6011.13,5.435086
6013.058,5.458279
6014.986,5.481566
6016.915,5.506639
6018.844,5.53154
6020.772,5.558466
6022.701,5.583028
6024.629,5.607306
6026.558,5.628693
6028.486,5.647638
6030.415,5.668341
6032.343,5.69343
6034.271,5.7139
6036.2,5.730501
6038.129,5.746586
6040.057,5.766524
6041.985,5.781675
6043.914,5.797738
6045.843,5.814077
6047.771,5.834011
6049.7,5.849427
6051.628,5.865217
6053.557,5.882907
6055.485,5.902547
6057.414,5.914423
6059.342,5.927641
6061.271,5.939916
6063.199,5.955527
6065.128,5.969621
6067.056,5.981383
6068.984,5.992583
6070.913,6.005983
6072.842,6.018205
6074.77,6.031033
6076.698,6.039154
6078.627,6.046083
6080.556,6.056102
6082.484,6.067706
6084.413,6.075919
6086.341,6.08583
6088.27,6.092308
6090.198,6.100541
6092.126,6.111769
6094.055,6.123931
6095.983,6.128835
6097.912,6.133313
6099.841,6.137395
6101.769,6.145804
6103.697,6.155584
6105.626,6.163586
6107.555,6.170777
6109.483,6.179373
6111.412,6.184632
6113.34,6.191287
6115.269,6.196244
6117.197,6.20186
6119.125,6.214934
6121.054,6.227846
6122.982,6.235919
6124.911,6.244679
6126.84,6.254228
6128.768,6.267509
6130.696,6.279594
6132.625,6.293337
6134.554,6.304796
6136.482,6.313046
6138.41,6.324367
6140.339,6.336628
6142.268,6.34533
6144.196,6.354017
6146.125,6.366638
6148.053,6.374715
6149.981,6.383739
6151.91,6.398408
6153.839,6.412569
6155.767,6.42312
6157.695,6.4326
6159.624,6.440402
6161.553,6.45131
6163.481,6.467939
6165.409,6.47627
6167.338,6.489187
6169.267,6.496685
6171.195,6.509002
6173.124,6.51982
6175.052,6.529572
6176.98,6.539873
6178.909,6.550688
6180.837,6.56052
6182.766,6.569257
6184.694,6.574389
6186.623,6.580998
6188.552,6.585655
6190.48,6.592353
6192.408,6.598246
6194.337,6.608445
6196.266,6.615478
6198.194,6.621157
6200.123,6.626825
6202.051,6.634819
6203.979,6.64195
6205.908,6.646267
6207.836,6.647962
6209.765,6.654807
6211.693,6.658567
6213.622,6.664696
6215.551,6.673152
6217.479,6.686223
6219.407,6.688967
6221.336,6.690216
6223.265,6.693655
6225.193,6.696897
6227.121,6.70087
6229.05,6.708798
6230.979,6.711222
6232.907,6.7153
6234.835,6.720214
6236.764,6.724507
6238.692,6.725304
6240.621,6.726938
6242.549,6.728412
6244.478,6.728047
6246.406,6.733534
6248.335,6.737939
6250.264,6.739514
6252.192,6.741456
6254.12,6.744094
6256.049,6.748668
6257.978,6.749328
6259.906,6.752776
6261.834,6.754074
6263.763,6.753459
6265.691,6.753071
6267.62,6.755373
6269.548,6.758069
6271.477,6.761812
6273.405,6.762836
6275.334,6.76789
6277.263,6.770513
6279.191,6.771191
6281.119,6.771038
6283.048,6.771131
6284.977,6.771546
6286.905,6.774121
6288.833,6.777621
6290.762,6.778291
6292.69,6.779157
6294.619,6.784365
6296.547,6.784993
6298.476,6.781948
6300.404,6.782304
6302.333,6.787987
6304.262,6.787007
6306.19,6.787997
6308.118,6.789431
6310.047,6.78875
6311.976,6.791157
6313.904,6.792881
6315.832,6.789596
6317.761,6.788982
6319.689,6.785831
6321.618,6.785355
6323.546,6.779119
6325.475,6.778843
6327.403,6.780263
6329.332,6.78036
6331.26,6.776991
6333.189,6.774678
6335.117,6.772609
6337.046,6.770688
6338.975,6.763406
6340.903,6.760236
6342.831,6.7549
6344.76,6.748533
6346.688,6.741904
6348.617,6.742527
6350.545,6.735674
6352.474,6.727597
6354.402,6.720994
6356.331,6.720416
6358.259,6.716025
6360.188,6.709515
6362.116,6.699821
6364.045,6.693448
6365.974,6.680756
6367.902,6.665782
6369.83,6.657115
6371.759,6.649699
6373.688,6.637987
6375.616,6.627721
6377.544,6.622896
6379.473,6.615444
6381.401,6.611843
6383.33,6.607266
6385.258,6.603829
6387.187,6.606745
6389.115,6.605223
6391.044,6.599747
6392.973,6.590568
6394.901,6.586309
6396.829,6.585456
6398.758,6.582836
6400.687,6.569836
6402.615,6.557176
6404.543,6.548902
6406.472,6.536999
6408.4,6.520029
6410.329,6.503602
6412.257,6.488826
6414.186,6.472641
6416.114,6.460042
6418.043,6.452098
6419.971,6.441931
6421.9,6.43632
6423.828,6.429275
6425.757,6.425678
6427.686,6.421337
6429.614,6.419617
6431.542,6.41752
6433.471,6.410934
6435.399,6.398376
6437.328,6.385507
6439.256,6.373109
6441.185,6.355081
6443.113,6.339301
6445.042,6.322189
6446.97,6.304891
6448.898,6.289593
6450.827,6.271813
6452.756,6.248496
6454.685,6.220985
6456.613,6.202755
6458.541,6.181285
6460.47,6.149388
6462.398,6.115582
6464.327,6.078033
6466.255,6.034418
6468.184,5.984587
6470.112,5.92646
6472.041,5.868716
6473.969,5.806788
6475.897,5.747507
6477.826,5.700167
6479.755,5.667552
6481.684,5.646259
6483.612,5.638894
6485.54,5.644973
6487.469,5.652589
6489.397,5.665323
6491.326,5.683712
6493.254,5.700882
6495.183,5.721749
6497.111,5.73965
6499.04,5.753759
6500.968,5.766641
6502.896,5.783682
6504.825,5.797133
6506.754,5.813114
6508.682,5.831376
6510.61,5.846731
6512.539,5.855549
6514.468,5.865004
6516.396,5.877145
6518.325,5.884763
6520.253,5.893516
6522.182,5.900554
6524.11,5.907627
6526.039,5.915614
6527.967,5.921345
6529.896,5.931036
6531.824,5.939616
6533.753,5.939463
6535.681,5.948514
6537.609,5.959229
6539.538,5.963753
6541.467,5.967001
6543.396,5.973597
6545.324,5.978757
6547.252,5.979373
6549.181,5.984831
6551.109,5.99011
6553.038,5.994639
6554.966,5.996231
6556.895,5.999615
6558.823,6.002217
6560.752,6.005519
6562.68,6.011371
6564.608,6.015357
6566.537,6.021921
6568.466,6.029257
6570.394,6.035011
6572.323,6.040736
6574.251,6.048395
6576.18,6.054626
6578.108,6.056199
6580.037,6.060993
6581.965,6.066512
6583.894,6.072032
6585.822,6.076319
6587.751,6.078326
6589.679,6.077531
6591.607,6.076969
6593.536,6.079027
6595.465,6.082114
6597.393,6.081313
6599.321,6.078611
6601.25,6.078588
6603.179,6.082316
6605.107,6.080701
6607.036,6.083201
6608.964,6.080825
6610.893,6.0734
6612.821,6.068825
6614.75,6.076844
6616.678,6.076548
6618.606,6.072547
6620.535,6.07155
6622.464,6.066064
6624.392,6.064727
6626.32,6.063256
6628.249,6.056304
6630.178,6.052622
6632.106,6.052461
6634.035,6.049215
6635.963,6.042291
6637.892,6.042348
6639.82,6.034308
6641.749,6.024884
6643.677,6.022265
6645.605,6.014965
6647.534,6.010398
6649.463,6.005932
6651.391,5.998883
6653.319,5.993933
6655.248,5.988608
6657.177,5.982437
6659.105,5.975172
6661.034,5.970588
6662.962,5.961621
6664.891,5.955521
6666.819,5.949849
6668.748,5.942519
6670.676,5.931904
6672.604,5.924979
6674.533,5.917607
6676.462,5.909418
6678.39,5.901724
6680.318,5.892405
6682.247,5.882305
6684.176,5.874805
6686.104,5.865751
6688.032,5.853564
6689.961,5.840826
6691.89,5.834406
6693.818,5.829034
6695.747,5.818563
6697.675,5.804185
6699.604,5.796281
6701.532,5.783679
6703.46,5.768623
6705.389,5.758013
6707.317,5.74997
6709.246,5.738581
6711.175,5.728746
6713.103,5.714548
6715.031,5.706251
6716.96,5.696969
6718.889,5.681479
6720.817,5.664023
6722.746,5.65017
6724.674,5.640077
6726.603,5.630507
6728.531,5.617685
6730.459,5.610721
6732.388,5.602256
6734.316,5.589492
6736.245,5.577656
6738.174,5.564574
6740.102,5.553329
6742.03,5.541683
6743.959,5.530125
6745.888,5.524367
6747.816,5.513805
6749.745,5.49768
6751.673,5.486205
6753.602,5.479014
6755.53,5.465637
6757.458,5.451725
6759.387,5.439969
6761.315,5.425355
6763.244,5.41493
6765.173,5.405832
6767.101,5.392821
6769.029,5.380764
6770.958,5.368514
6772.887,5.35732
6774.815,5.335532
6776.743,5.313769
6778.672,5.297161
6780.601,5.28041
6782.529,5.266621
6784.458,5.252417
6786.386,5.229115
6788.314,5.211978
6790.243,5.194019
6792.171,5.170434
6794.1,5.149917
6796.028,5.133323
6797.957,5.110517
6799.886,5.081446
6801.814,5.058901
6803.742,5.041997
6805.671,5.020468
6807.6,5.002159
6809.528,4.983792
6811.457,4.966724
6813.385,4.945371
6815.313,4.920938
6817.242,4.896803
6819.17,4.878099
6821.099,4.86029
6823.027,4.840081
6824.956,4.813538
6826.885,4.788885
6828.813,4.767861
6830.741,4.746706
6832.67,4.728908
6834.599,4.717863
6836.527,4.710247
6838.455,4.69609
6840.384,4.678476
6842.313,4.669547
6844.241,4.663708
6846.169,4.651891
6848.098,4.638567
6850.026,4.631577
6851.955,4.624371
6853.884,4.609284
6855.812,4.595163
6857.74,4.584381
6859.669,4.574543
6861.598,4.563544
6863.526,4.554048
6865.454,4.545711
6867.383,4.532506
6869.312,4.52616
6871.24,4.51291
6873.168,4.494342
6875.097,4.480194
6877.025,4.467159
6878.954,4.453416
6880.882,4.440014
6882.811,4.424644
6884.739,4.408808
6886.668,4.390722
6888.597,4.374029
6890.525,4.359657
6892.453,4.348484
6894.382,4.330832
6896.311,4.314424
6898.239,4.304262
6900.167,4.291897
6902.096,4.278802
6904.024,4.265723
6905.953,4.25174
6907.881,4.243974
6909.81,4.236177
6911.738,4.221093
6913.667,4.21432
6915.596,4.205676
6917.524,4.188079
6919.452,4.176935
6921.381,4.163432
6923.31,4.14758
6925.238,4.13091
6927.166,4.117223
6929.095,4.100133
6931.023,4.078271
6932.952,4.061897
6934.88,4.045354
6936.809,4.021386
6938.737,4.000608
6940.666,3.979706
6942.594,3.959569
6944.523,3.94441
6946.451,3.926157
6948.38,3.913417
6950.309,3.907754
6952.237,3.900027
6954.165,3.892612
6956.094,3.885534
6958.022,3.88414
6959.951,3.883966
6961.879,3.887871
6963.808,3.885263
6965.736,3.882397
6967.665,3.883498
6969.593,3.886806
6971.521,3.880557
6973.45,3.873644
6975.379,3.878264
6977.308,3.879705
6979.236,3.874523
6981.164,3.87198
6983.093,3.870575
6985.021,3.86887
6986.95,3.862068
6988.878,3.85719
6990.807,3.853403
6992.735,3.842306
6994.664,3.834698
6996.592,3.834691
6998.521,3.825533
7000.449,3.816777
7002.378,3.810025
7004.307,3.80247
7006.235,3.792606
7008.163,3.781729
7010.092,3.771071
7012.021,3.766174
7013.949,3.760193
7015.877,3.750781
7017.806,3.736984
7019.734,3.732094
7021.663,3.730294
7023.591,3.727413
7025.52,3.726342
7027.448,3.721067
7029.377,3.722061
7031.305,3.720935
7033.234,3.72821
7035.162,3.729065
7037.091,3.723999
7039.02,3.725818
7040.948,3.727667
7042.876,3.726658
7044.805,3.721646
7046.733,3.7034
7048.662,3.681301
7050.59,3.672587
7052.519,3.653569
7054.447,3.62358
7056.376,3.602141
7058.304,3.584394
7060.232,3.563864
7062.161,3.555634
7064.09,3.550577
7066.019,3.560836
7067.947,3.581099
7069.875,3.598725
7071.804,3.617818
7073.732,3.642718
7075.661,3.676354
7077.589,3.712928
7079.518,3.736974
7081.446,3.756415
7083.375,3.782199
7085.303,3.8076
7087.231,3.819613
7089.16,3.834
7091.089,3.854352
7093.018,3.870733
7094.946,3.874463
7096.874,3.891737
7098.803,3.910885
7100.731,3.926625
7102.66,3.948128
7104.588,3.968973
7106.517,3.98838
7108.445,4.01085
7110.374,4.036184
7112.302,4.063836
7114.23,4.086664
7116.159,4.113127
7118.088,4.116132
7120.016,4.1332
7121.944,4.148878
7123.873,4.161725
7125.802,4.175024
7127.73,4.177936
7129.659,4.180746
7131.587,4.184205
7133.516,4.179268
7135.444,4.16599
7137.373,4.161442
7139.301,4.14382
7141.229,4.112705
7143.158,4.104484
7145.087,4.082952
7147.015,4.048541
7148.943,4.014181
7150.872,3.98254
7152.801,3.943831
7154.729,3.890539
7156.658,3.824049
7158.586,3.770602
7160.515,3.698783
7162.443,3.607436
7164.372,3.532584
7166.3,3.460967
7168.229,3.401738
7170.157,3.358091
7172.086,3.34394
7174.014,3.343882
7175.942,3.361641
7177.871,3.394489
7179.8,3.439934
7181.729,3.473724
7183.657,3.519056
7185.585,3.572613
7187.514,3.62303
7189.442,3.673152
7191.371,3.722487
7193.299,3.769059
7195.228,3.81251
7197.156,3.865334
7199.085,3.914456
7201.013,3.976957
7202.941,4.029697
7204.87,4.063189
7206.799,4.11068
7208.727,4.168286
7210.655,4.212075
7212.584,4.252614
7214.513,4.302372
7216.441,4.353061
7218.37,4.394846
7220.298,4.433079
7222.227,4.482354
7224.155,4.541703
7226.083,4.584948
7228.012,4.631941
7229.94,4.694099
7231.869,4.726588
7233.798,4.748471
7235.726,4.798062
7237.654,4.843218
7239.583,4.894537
7241.512,4.93993
7243.44,4.958103
7245.369,4.997324
7247.297,5.047014
7249.226,5.085397
7251.154,5.134537
7253.083,5.174015
7255.011,5.211703
7256.939,5.253248
7258.868,5.296103
7260.797,5.334691
7262.725,5.371769
7264.653,5.417817
7266.582,5.465664
7268.511,5.507573
7270.439,5.551673
7272.368,5.590504
7274.296,5.630592
7276.225,5.664572
7278.153,5.705441
7280.082,5.754251
7282.01,5.792104
7283.938,5.830671
7285.867,5.878033
7287.796,5.914286
7289.724,5.952583
7291.652,6.004508
7293.581,6.045762
7295.51,6.064947
7297.438,6.117371
7299.366,6.154218
7301.295,6.191275
7303.224,6.235607
7305.152,6.286834
7307.081,6.308249
7309.009,6.353187
7310.938,6.393147
7312.866,6.421791
7314.794,6.464335
7316.723,6.493085
7318.651,6.529037
7320.58,6.571244
7322.509,6.611038
7324.437,6.632335
7326.365,6.673097
7328.294,6.670459
7330.223,6.688321
7332.151,6.709625
7334.08,6.736963
7336.008,6.758229
7337.937,6.796092
7339.865,6.801548
7341.793,6.813776
7343.722,6.824286
7345.65,6.843115
7347.579,6.862695
7349.508,6.867479
7351.436,6.89452
7353.364,6.920193
7355.293,6.933211
7357.222,6.942842
7359.15,6.982982
7361.079,7.002524
7363.007,7.02269
7364.936,7.048076
7366.864,7.077661
7368.792,7.084311
7370.721,7.104467
7372.649,7.145014
7374.578,7.172479
7376.507,7.172823
7378.435,7.203412
7380.363,7.226278
7382.292,7.237434
7384.221,7.250034
7386.149,7.269208
7388.077,7.292503
7390.006,7.307112
7391.935,7.323256
7393.863,7.33322
7395.792,7.346243
7397.72,7.363131
7399.648,7.370056
7401.577,7.381843
7403.505,7.388761
7405.434,7.392801
7407.362,7.400378
7409.291,7.414447
7411.22,7.418798
7413.148,7.433066
7415.076,7.444484
7417.005,7.450662
7418.934,7.44957
7420.862,7.446174
7422.791,7.450934
7424.719,7.458755
7426.647,7.461391
7428.576,7.462888
7430.504,7.470409
7432.433,7.48036
7434.361,7.484559
7436.29,7.491015
7438.219,7.49545
7440.147,7.497615
7442.075,7.495382
7444.004,7.505937
7445.933,7.516278
7447.861,7.519428
7449.789,7.519868
7451.718,7.520505
7453.646,7.527005
7455.575,7.526862
7457.503,7.520813
7459.432,7.528036
7461.36,7.536394
7463.289,7.539323
7465.218,7.536615
7467.146,7.537618
7469.074,7.537553
7471.003,7.538361
7472.932,7.542243
7474.86,7.546639
7476.788,7.547057
7478.717,7.54572
7480.646,7.541572
7482.574,7.542487
7484.502,7.551812
7486.431,7.554977
7488.359,7.551093
7490.288,7.54859
7492.216,7.546292
7494.145,7.549391
7496.073,7.553522
7498.002,7.548193
7499.931,7.549284
7501.859,7.550523
7503.787,7.546296
7505.716,7.540466
7507.645,7.539253
7509.573,7.533271
7511.501,7.533227
7513.43,7.53482
7515.358,7.535122
7517.287,7.539436
7519.215,7.539597
7521.144,7.540087
7523.072,7.538484
7525.001,7.528719
7526.93,7.53056
7528.858,7.528191
7530.786,7.527129
7532.715,7.529208
7534.644,7.527789
7536.572,7.518991
7538.5,7.513011
7540.429,7.511773
7542.357,7.509869
7544.286,7.50817
7546.214,7.503772
7548.143,7.501863
7550.071,7.495771
7552.0,7.4958
7553.928,7.494344
7555.857,7.49497
7557.785,7.494589
7559.714,7.489353
7561.643,7.488155
7563.571,7.48293
7565.499,7.481914
7567.428,7.480862
7569.356,7.480939
7571.285,7.476607
7573.213,7.468812
7575.142,7.460008
7577.07,7.457959
7578.999,7.461804
7580.927,7.466461
7582.855,7.463211
7584.784,7.451463
7586.713,7.445972
7588.642,7.440882
7590.57,7.433289
7592.498,7.424426
7594.427,7.422451
7596.355,7.423753
7598.284,7.419401
7600.212,7.413272
7602.141,7.404885
7604.069,7.400281
7605.998,7.399125
7607.926,7.389289
7609.854,7.384457
7611.783,7.382205
7613.712,7.37581
7615.641,7.364901
7617.569,7.35375
7619.497,7.356023
7621.426,7.361502
7623.354,7.353395
7625.283,7.34358
7627.211,7.338966
7629.14,7.335388
7631.068,7.327137
7632.997,7.319359
7634.925,7.313539
7636.854,7.303542
7638.782,7.296473
7640.711,7.288464
7642.639,7.283363
7644.568,7.281014
7646.496,7.275767
7648.425,7.268929
7650.354,7.260681
7652.282,7.25984
7654.21,7.250843
7656.139,7.243516
7658.067,7.241652
7659.996,7.235271
7661.924,7.22733
7663.853,7.222898
7665.781,7.217492
7667.71,7.211075
7669.638,7.207763
7671.566,7.197943
7673.495,7.194861
7675.424,7.192303
7677.353,7.181469
7679.281,7.176933
7681.209,7.177126
7683.138,7.1774
7685.066,7.165626
7686.995,7.156144
7688.923,7.1582
7690.852,7.164936
7692.78,7.161363
7694.709,7.151274
7696.637,7.144921
7698.565,7.146136
7700.494,7.142729
7702.423,7.137918
7704.352,7.13599
7706.28,7.130145
7708.208,7.125149
7710.137,7.119411
7712.065,7.115716
7713.994,7.11414
7715.922,7.108909
7717.851,7.100855
7719.779,7.097336
7721.708,7.088727
7723.636,7.085618
7725.564,7.085691
7727.493,7.079777
7729.422,7.073437
7731.35,7.07438
7733.279,7.066833
7735.207,7.060338
7737.136,7.054668
7739.064,7.05398
7740.993,7.04653
7742.921,7.038972
7744.85,7.036923
7746.778,7.03979
7748.707,7.038811
7750.635,7.031169
7752.563,7.025898
7754.492,7.019304
7756.421,7.017555
7758.349,7.005896
7760.277,6.999662
7762.206,7.000922
7764.135,6.994723
7766.063,6.98834
7767.992,6.98058
7769.92,6.970154
7771.849,6.96312
7773.777,6.957268
7775.706,6.952026
7777.634,6.950945
7779.563,6.956156
7781.491,6.956361
7783.42,6.947274
7785.348,6.940707
7787.276,6.93592
7789.205,6.926842
7791.134,6.924318
7793.063,6.928187
7794.991,6.928995
7796.919,6.91666
7798.848,6.910213
7800.776,6.907485
7802.705,6.90392
7804.633,6.898283
7806.562,6.891113
7808.49,6.88834
7810.419,6.881523
7812.347,6.871499
7814.275,6.86622
7816.204,6.862975
7818.133,6.857966
7820.061,6.849162
7821.989,6.837605
7823.918,6.833016
7825.847,6.831013
7827.775,6.822839
7829.704,6.813774
7831.632,6.814054
7833.561,6.81578
7835.489,6.811792
7837.417,6.807078
7839.346,6.794727
7841.274,6.779268
7843.203,6.773735
7845.132,6.771923
7847.06,6.764279
7848.988,6.753638
7850.917,6.747425
7852.846,6.732265
7854.774,6.727099
7856.703,6.720263
7858.631,6.710814
7860.56,6.703588
7862.488,6.694154
7864.417,6.684979
7866.345,6.681409
7868.273,6.673556
7870.202,6.659637
7872.131,6.648475
7874.059,6.642328
7875.987,6.632964
7877.916,6.618763
7879.845,6.605624
7881.773,6.598032
7883.702,6.592173
7885.63,6.578983
7887.559,6.568039
7889.487,6.561653
7891.416,6.552561
7893.344,6.543137
7895.272,6.539358
7897.201,6.526224
7899.13,6.510489
7901.058,6.495469
7902.986,6.479167
7904.915,6.478784
7906.844,6.468709
7908.772,6.454981
7910.7,6.44506
7912.629,6.435706
7914.558,6.419174
7916.486,6.400135
7918.415,6.391687
7920.343,6.38139
7922.271,6.364135
7924.2,6.349999
7926.128,6.338575
7928.057,6.330127
7929.985,6.320469
7931.914,6.30521
7933.843,6.284632
7935.771,6.276577
7937.699,6.265213
7939.628,6.246916
7941.557,6.232358
7943.485,6.224206
7945.414,6.212518
7947.342,6.192832
7949.271,6.177819
7951.199,6.161944
7953.127,6.138701
7955.056,6.119214
7956.984,6.111856
7958.913,6.094048
7960.842,6.072647
7962.77,6.055885
7964.698,6.039972
7966.627,6.02187
7968.556,6.002302
7970.484,5.986389
7972.413,5.975935
7974.341,5.960806
7976.27,5.949908
7978.198,5.92936
7980.126,5.908221
7982.055,5.897222
7983.983,5.87973
7985.912,5.855461
7987.841,5.842216
7989.769,5.818144
7991.697,5.788837
7993.626,5.773163
7995.555,5.760312
7997.483,5.740363
7999.411,5.723417
8001.34,5.705522
8003.269,5.689166
8005.197,5.660809
8007.125,5.640363
8009.054,5.621011
8010.982,5.601917
8012.911,5.58532
8014.839,5.565461
8016.768,5.537448
8018.696,5.520668
8020.625,5.513366
8022.554,5.487997
8024.482,5.46039
8026.41,5.439624
8028.339,5.417439
8030.268,5.395851
8032.196,5.371903
8034.125,5.350122
8036.053,5.328894
8037.981,5.305752
8039.91,5.274711
8041.838,5.247258
8043.767,5.2215
8045.695,5.206818
8047.624,5.19147
8049.553,5.164832
8051.481,5.135888
8053.409,5.112906
8055.338,5.087417
8057.267,5.063616
8059.195,5.036791
8061.124,5.012153
8063.052,4.989387
8064.98,4.967912
8066.909,4.945084
8068.837,4.913014
8070.766,4.884871
8072.694,4.858735
8074.623,4.842682
8076.552,4.82316
8078.48,4.793095
8080.408,4.761952
8082.337,4.738461
8084.266,4.714482
8086.194,4.683136
8088.122,4.645397
8090.051,4.620408
8091.979,4.601165
8093.908,4.572601
8095.836,4.543282
8097.765,4.508907
8099.693,4.481504
8101.622,4.460193
8103.551,4.433116
8105.479,4.411493
8107.407,4.382571
8109.336,4.347579
8111.265,4.323438
8113.192,4.297615
8115.121,4.259516
8117.05,4.218506
8118.979,4.194276
8120.907,4.167297
8122.835,4.137755
8124.764,4.111716
8126.692,4.080395
8128.621,4.044703
8130.55,4.019458
8132.478,3.989212
8134.406,3.951477
8136.335,3.923759
8138.264,3.902058
8140.191,3.871094
8142.12,3.838347
8144.049,3.804672
8145.978,3.771128
8147.906,3.741512
8149.834,3.714176
8151.763,3.685278
8153.691,3.660341
8155.62,3.63051
8157.548,3.598598
8159.477,3.571298
8161.405,3.547467
8163.334,3.51681
8165.263,3.48636
8167.19,3.460656
8169.119,3.431838
8171.048,3.404533
8172.977,3.37371
8174.905,3.346789
8176.833,3.327468
8178.762,3.308167
8180.69,3.284828
8182.619,3.259123
8184.547,3.235155
8186.476,3.21348
8188.404,3.200228
8190.333,3.179683
8192.262,3.161436
8194.189,3.14636
8196.118,3.127384
8198.047,3.109727
8199.976,3.103905
8201.903,3.093738
8203.832,3.079245
8205.761,3.064397
8207.689,3.048314
8209.618,3.043491
8211.546,3.042042
8213.475,3.038083
8215.403,3.03125
8217.332,3.029495
8219.261,3.02845
8221.188,3.029242
8223.117,3.023712
8225.046,3.021483
8226.975,3.020032
8228.902,3.023338
8230.831,3.024289
8232.76,3.020306
8234.688,3.023801
8236.617,3.024033
8238.545,3.0204
8240.474,3.020999
8242.402,3.031835
8244.331,3.03968
8246.259,3.042892
8248.188,3.040298
8250.116,3.027535
8252.045,3.030119
8253.974,3.051651
8255.901,3.060699
8257.83,3.061784
8259.759,3.066277
8261.688,3.073539
8263.616,3.080462
8265.544,3.085279
8267.473,3.087275
8269.401,3.090956
8271.33,3.105961
8273.258,3.114607
8275.187,3.127016
8277.115,3.13718
8279.044,3.147769
8280.973,3.166557
8282.9,3.181309
8284.829,3.186883
8286.758,3.207555
8288.687,3.222599
8290.614,3.235199
8292.543,3.252517
8294.472,3.265463
8296.4,3.284628
8298.329,3.298569
8300.257,3.311
8302.186,3.328556
8304.114,3.344223
8306.043,3.376007
8307.972,3.387789
8309.899,3.390709
8311.828,3.413865
8313.757,3.437309
8315.686,3.45582
8317.613,3.474691
8319.542,3.494438
8321.471,3.506442
8323.399,3.520029
8325.328,3.534419
8327.256,3.554558
8329.185,3.571591
8331.113,3.592423
8333.042,3.612049
8334.97,3.629563
8336.898,3.645113
8338.827,3.67192
8340.756,3.694673
8342.685,3.715604
8344.612,3.738907
8346.541,3.755786
8348.47,3.762904
8350.398,3.79112
8352.327,3.832463
8354.255,3.856949
8356.184,3.8664
8358.112,3.884874
8360.041,3.906068
8361.969,3.927057
8363.897,3.94949
8365.826,3.973727
8367.755,3.988692
8369.684,4.001033
8371.611,4.024174
8373.54,4.049901
8375.469,4.074557
8377.397,4.098324
8379.325,4.116231
8381.254,4.132387
8383.183,4.143957
8385.111,4.170301
8387.04,4.185046
8388.968,4.198666
8390.896,4.211052
8392.825,4.222161
8394.754,4.233418
8396.683,4.251019
8398.61,4.263423
8400.539,4.265384
8402.468,4.267093
8404.396,4.285668
8406.324,4.30095
8408.253,4.299808
8410.182,4.30463
8412.11,4.320425
8414.039,4.319643
8415.967,4.325364
8417.896,4.322341
8419.824,4.327027
8421.753,4.34832
8423.681,4.359094
8425.609,4.368268
8427.538,4.384136
8429.467,4.397185
8431.396,4.413145
8433.323,4.429791
8435.252,4.457504
8437.181,4.478791
8439.109,4.497515
8441.037,4.519301
8442.966,4.553716
8444.895,4.590712
8446.823,4.617983
8448.752,4.643617
8450.68,4.679335
8452.608,4.714018
8454.537,4.742112
8456.466,4.762039
8458.395,4.783177
8460.322,4.808252
8462.251,4.835065
8464.18,4.861422
8466.108,4.882632
8468.036,4.916554
8469.965,4.941097
8471.894,4.953969
8473.822,4.978607
8475.751,5.010671
8477.679,5.032509
8479.607,5.065273
8481.536,5.093287
8483.465,5.12064
8485.393,5.136549
8487.321,5.156446
8489.25,5.174389
8491.179,5.195285
8493.107,5.228147
8495.035,5.249446
8496.964,5.26701
8498.893,5.28346
8500.821,5.297408
8502.75,5.3087
8504.678,5.323865
8506.606,5.339284
8508.535,5.355951
8510.464,5.360985
8512.392,5.365754
8514.32,5.380005
8516.249,5.395001
8518.178,5.404162
8520.106,5.412964
8522.034,5.428109
8523.963,5.440786
8525.892,5.46393
8527.82,5.480815
8529.748,5.479266
8531.677,5.477114
8533.605,5.494479
8535.534,5.501619
8537.463,5.499559
8539.391,5.486309
8541.319,5.476337
8543.248,5.471142
8545.177,5.453159
8547.105,5.44266
8549.033,5.431129
8550.962,5.409292
8552.891,5.390732
8554.819,5.366291
8556.747,5.34109
8558.676,5.321085
8560.604,5.297386
8562.533,5.28061
8564.462,5.278553
8566.39,5.294969
8568.318,5.318151
8570.247,5.337263
8572.176,5.365013
8574.104,5.388844
8576.032,5.420773
8577.961,5.458626
8579.89,5.489861
8581.818,5.513668
8583.746,5.553891
8585.675,5.597378
8587.604,5.626191
8589.532,5.658859
8591.461,5.697731
8593.389,5.749095
8595.317,5.798014
8597.246,5.83539
8599.175,5.871754
8601.103,5.914748
8603.031,5.968391
8604.96,6.009478
8606.889,6.048278
8608.817,6.095328
8610.745,6.133195
8612.674,6.171559
8614.603,6.22325
8616.531,6.262816
8618.459,6.298914
8620.388,6.33867
8622.316,6.377848
8624.245,6.407607
8626.174,6.451286
8628.102,6.482196
8630.03,6.506663
8631.959,6.541621
8633.888,6.581648
8635.816,6.60582
8637.744,6.624904
8639.673,6.658865
8641.602,6.695677
8643.53,6.724488
8645.458,6.757739
8647.387,6.766858
8649.315,6.784197
8651.244,6.817084
8653.173,6.850073
8655.101,6.871223
8657.029,6.890491
8658.958,6.90492
8660.887,6.916968
8662.814,6.929222
8664.743,6.954279
8666.672,6.970586
8668.601,6.977381
8670.529,6.9988
8672.457,7.026047
8674.386,7.029236
8676.314,7.041665
8678.243,7.068152
8680.172,7.091935
8682.1,7.104945
8684.028,7.116419
8685.957,7.123958
8687.886,7.150094
8689.813,7.175663
8691.742,7.195882
8693.671,7.224065
8695.6,7.237747
8697.528,7.242951
8699.456,7.2704
8701.385,7.298676
8703.313,7.317217
8705.242,7.359293
8707.17,7.390372
8709.099,7.398233
8711.027,7.41521
8712.956,7.437777
8714.885,7.464723
8716.813,7.489721
8718.741,7.524203
8720.67,7.549717
8722.599,7.566596
8724.527,7.597354
8726.455,7.618614
8728.384,7.632433
8730.313,7.651741
8732.241,7.677251
8734.169,7.688537
8736.098,7.713704
8738.026,7.753092
8739.955,7.767614
8741.884,7.792391
8743.812,7.814977
8745.74,7.829273
8747.669,7.852945
8749.598,7.861673
8751.525,7.877815
8753.454,7.889864
8755.383,7.914177
8757.312,7.943091
8759.24,7.953551
8761.168,7.974432
8763.097,7.995359
8765.025,8.003403
8766.954,8.014738
8768.882,8.036216
8770.811,8.052744
8772.739,8.06077
8774.668,8.078799
8776.597,8.099792
8778.524,8.110336
8780.453,8.12153
8782.382,8.134009
8784.311,8.14864
8786.239,8.161741
8788.167,8.15612
8790.096,8.156936
8792.024,8.182129
8793.953,8.203228
8795.881,8.21885
8797.81,8.218852
8799.738,8.225534
8801.667,8.234806
8803.596,8.24997
8805.523,8.260413
8807.452,8.268733
8809.381,8.28343
8811.31,8.284062
8813.237,8.28444
8815.166,8.297064
8817.095,8.301787
8819.023,8.300961
8820.952,8.30341
8822.88,8.311867
8824.809,8.315687
8826.737,8.324096
8828.666,8.326642
8830.595,8.333097
8832.522,8.334639
8834.451,8.343469
8836.38,8.345391
8838.309,8.35001
8840.236,8.367758
8842.165,8.372261
8844.094,8.367557
8846.022,8.376919
8847.951,8.37555
8849.879,8.380426
8851.808,8.397161
8853.736,8.386798
8855.665,8.372777
8857.593,8.371488
8859.521,8.381831
8861.45,8.39448
8863.379,8.389641
8865.308,8.390318
8867.235,8.397124
8869.164,8.399404
8871.093,8.402772
8873.021,8.406164
8874.95,8.388801
8876.878,8.39854
8878.807,8.408222
8880.735,8.410742
8882.664,8.413269
8884.592,8.413639
8886.521,8.413106
8888.449,8.418943
8890.378,8.415472
8892.307,8.408895
8894.234,8.402479
8896.163,8.420382
8898.092,8.431339
8900.021,8.417322
8901.948,8.403834
8903.877,8.409747
8905.806,8.411135
8907.734,8.418343
8909.663,8.406176
8911.591,8.392444
8913.52,8.402027
8915.448,8.413136
8917.377,8.410875
8919.306,8.411651
8921.233,8.405932
8923.162,8.408472
8925.091,8.406106
8927.02,8.403819
8928.947,8.396304
8930.876,8.392699
8932.805,8.407246
8934.733,8.412799
8936.662,8.411093
8938.59,8.415047
8940.519,8.401767
8942.447,8.400355
8944.376,8.405407
8946.304,8.411357
8948.232,8.401874
8950.161,8.38742
8952.09,8.393805
8954.019,8.403167
8955.946,8.409213
8957.875,8.404236
8959.804,8.39034
8961.732,8.385464
8963.661,8.396273
8965.589,8.40287
8967.518,8.403456
8969.446,8.407537
8971.375,8.400091
8973.303,8.400035
8975.231,8.403565
8977.16,8.399376
8979.089,8.405176
8981.018,8.416282
8982.945,8.404017
8984.874,8.402298
8986.803,8.414073
8988.731,8.411113
8990.659,8.401154
8992.588,8.399461
8994.517,8.413286
8996.445,8.417695
8998.374,8.417792
9000.302,8.417544
9002.23,8.424248
9004.159,8.435228
9006.088,8.431064
9008.017,8.429584
9009.944,8.428209
9011.873,8.425337
9013.802,8.427891
9015.73,8.430234
9017.658,8.444564
9019.587,8.443439
9021.516,8.437668
9023.444,8.437553
9025.373,8.435925
9027.301,8.451862
9029.229,8.453176
9031.158,8.451262
9033.087,8.468868
9035.015,8.46912
9036.943,8.450952
9038.872,8.441093
9040.801,8.442983
9042.729,8.457058
9044.657,8.467972
9046.586,8.455149
9048.515,8.449006
9050.443,8.442311
9052.372,8.454262
9054.3,8.470793
9056.229,8.454717
9058.157,8.452215
9060.086,8.447879
9062.014,8.456854
9063.942,8.460763
9065.871,8.466296
9067.8,8.463365
9069.729,8.451902
9071.656,8.451733
9073.585,8.461039
9075.514,8.464683
9077.442,8.462505
9079.37,8.475994
9081.299,8.492069
9083.228,8.473408
9085.156,8.451443
9087.085,8.441592
9089.013,8.44326
9090.941,8.463711
9092.87,8.475327
9094.799,8.480596
9096.727,8.476941
9098.655,8.472235
9100.584,8.478115
9102.513,8.466671
9104.441,8.461002
9106.369,8.464152
9108.298,8.471205
9110.227,8.4552
9112.155,8.447411
9114.084,8.446645
9116.012,8.455915
9117.94,8.456738
9119.869,8.453762
9121.798,8.463584
9123.726,8.466763
9125.654,8.450846
9127.583,8.447667
9129.512,8.450309
9131.44,8.452352
9133.368,8.453173
9135.297,8.453082
9137.226,8.450008
9139.154,8.45962
9141.082,8.461589
9143.011,8.471211
9144.939,8.458698
9146.868,8.438406
9148.797,8.442272
9150.725,8.447786
9152.653,8.455959
9154.582,8.45144
9156.511,8.436948
9158.439,8.431528
9160.367,8.440193
9162.296,8.450036
9164.225,8.453832
9166.153,8.444967
9168.081,8.42585
9170.01,8.428105
9171.938,8.433161
9173.867,8.424887
9175.796,8.417715
9177.724,8.41893
9179.652,8.405997
9181.581,8.400278
9183.51,8.415504
9185.438,8.421062
9187.366,8.413057
9189.295,8.39518
9191.224,8.396132
9193.152,8.408074
9195.08,8.403177
9197.009,8.388109
9198.938,8.394573
9200.866,8.394243
9202.795,8.393221
9204.723,8.393985
9206.651,8.394623
9208.58,8.395697
9210.509,8.390002
9212.437,8.374582
9214.365,8.375974
9216.294,8.382277
9218.223,8.381232
9220.151,8.382928
9222.079,8.382377
9224.008,8.378644
9225.937,8.361766
9227.865,8.358573
9229.793,8.360662
9231.722,8.371078
9233.65,8.368037
9235.579,8.356205
9237.508,8.361711
9239.436,8.364698
9241.364,8.365764
9243.293,8.371354
9245.222,8.376885
9247.15,8.360269
9249.078,8.343027
9251.007,8.343231
9252.936,8.357116
9254.864,8.353797
9256.792,8.340873
9258.721,8.344503
9260.649,8.355097
9262.578,8.343887
9264.507,8.329985
9266.435,8.318831
9268.363,8.332151
9270.292,8.334467
9272.221,8.315994
9274.148,8.318272
9276.077,8.323944
9278.006,8.330667
9279.935,8.328706
9281.863,8.33334
9283.791,8.322329
9285.72,8.317645
9287.648,8.321482
9289.577,8.313961
9291.506,8.294216
9293.434,8.298535
9295.362,8.308748
9297.291,8.306038
9299.22,8.305556
9301.147,8.302787
9303.076,8.293538
9305.005,8.299274
9306.934,8.313225
9308.862,8.323702
9310.79,8.311299
9312.719,8.29501
9314.647,8.285762
9316.576,8.302529
9318.504,8.315655
9320.433,8.30832
9322.361,8.301044
9324.29,8.286962
9326.219,8.295382
9328.146,8.299622
9330.075,8.308893
9332.004,8.312518
9333.933,8.30514
9335.861,8.2949
9337.789,8.292067
9339.718,8.304914
9341.646,8.31239
9343.575,8.314979
9345.503,8.309565
9347.432,8.307262
9349.36,8.28882
9351.289,8.272188
9353.218,8.275824
9355.146,8.281949
9357.074,8.269598
9359.003,8.268304
9360.932,8.26891
9362.859,8.273225
9364.788,8.268576
9366.717,8.267291
9368.646,8.265203
9370.574,8.261124
9372.502,8.252251
9374.431,8.252439
9376.359,8.247512
9378.288,8.242631
9380.217,8.253856
9382.145,8.248629
9384.073,8.24043
9386.002,8.234527
9387.931,8.217381
9389.858,8.215968
9391.787,8.228675
9393.716,8.235207
9395.645,8.225219
9397.573,8.207424
9399.501,8.221521
9401.43,8.222883
9403.358,8.218784
9405.287,8.211132
9407.215,8.198246
9409.144,8.184806
9411.072,8.199019
9413.001,8.192664
9414.93,8.172845
9416.857,8.174175
9418.786,8.179786
9420.715,8.169472
9422.644,8.164916
9424.571,8.161928
9426.5,8.146448
9428.429,8.132258
9430.357,8.148095
9432.286,8.146305
9434.214,8.134215
9436.143,8.142411
9438.071,8.13803
9440.0,8.127584
9441.929,8.129826
9443.856,8.131873
9445.785,8.11964
9447.714,8.109228
9449.643,8.097017
9451.57,8.074935
9453.499,8.077717
9455.428,8.085952
9457.356,8.079998
9459.285,8.081988
9461.213,8.073505
9463.142,8.074533
9465.07,8.078572
9466.999,8.06169
9468.927,8.068951
9470.855,8.072808
9472.784,8.049939
9474.713,8.033213
9476.642,8.040554
9478.569,8.028447
9480.498,8.016309
9482.427,8.019746
9484.355,8.030098
9486.284,8.021333
9488.212,8.011498
9490.141,8.030404
9492.069,8.033211
9493.998,8.017262
9495.926,8.006838
9497.854,8.011346
9499.783,8.015542
9501.712,8.002069
9503.641,7.98836
9505.568,7.981986
9507.497,7.983552
9509.426,7.985548
9511.354,7.987054
9513.282,7.985793
9515.211,7.981859
9517.14,7.98842
9519.068,7.984046
9520.997,7.972963
9522.925,7.971169
9524.854,7.97014
9526.782,7.968976
9528.711,7.955523
9530.64,7.96166
9532.567,7.963568
9534.496,7.955731
9536.425,7.959431
9538.354,7.958141
9540.281,7.9703
9542.21,7.970475
9544.139,7.952694
9546.067,7.93552
9547.996,7.939638
9549.924,7.936247
9551.853,7.921344
9553.781,7.909484
9555.71,7.910317
9557.638,7.910607
9559.566,7.899374
9561.495,7.886147
9563.424,7.879498
9565.353,7.893393
9567.28,7.89608
9569.209,7.88832
9571.138,7.876616
9573.066,7.882452
9574.995,7.883435
9576.923,7.88559
9578.852,7.890668
9580.78,7.890856
9582.709,7.868806
9584.637,7.854768
9586.565,7.867591
9588.494,7.874898
9590.423,7.862301
9592.352,7.860644
9594.279,7.855962
9596.208,7.856735
9598.137,7.868136
9600.065,7.858263
9601.993,7.860992
9603.922,7.853717
9605.851,7.852785
9607.779,7.892708
9609.708,7.894137
9611.636,7.874881
9613.564,7.862004
9615.493,7.859602
9617.422,7.881709
9619.351,7.900561
9621.278,7.905335
9623.207,7.907029
9625.136,7.914361
9627.064,7.926337
9628.992,7.924362
9630.921,7.931663
9632.85,7.930467
9634.778,7.934959
9636.707,7.952367
9638.635,7.94818
9640.563,7.935561
9642.492,7.925106
9644.421,7.942447
9646.349,7.963217
9648.277,7.961012
9650.206,7.973123
9652.135,7.98338
9654.063,7.986282
9655.991,7.985924
9657.92,7.991918
9659.849,7.993331
9661.777,8.005548
9663.706,8.022719
9665.634,8.037744
9667.563,8.042553
9669.491,8.023993
9671.42,8.039363
9673.348,8.055823
9675.276,8.051205
9677.205,8.061447
9679.134,8.059115
9681.063,8.064181
9682.99,8.055036
9684.919,8.059374
9686.848,8.060785
9688.776,8.064197
9690.704,8.058157
9692.633,8.074444
9694.562,8.100641
9696.49,8.099483
9698.419,8.112554
9700.347,8.133595
9702.275,8.135326
9704.204,8.142753
9706.133,8.156668
9708.062,8.144316
9709.989,8.155165
9711.918,8.172763
9713.847,8.17215
9715.775,8.178818
9717.703,8.173189
9719.632,8.178452
9721.561,8.184154
9723.489,8.197017
9725.418,8.208701
9727.346,8.21427
9729.274,8.212724
9731.203,8.231335
9733.132,8.237796
9735.06,8.237664
9736.988,8.257715
9738.917,8.262454
9740.846,8.258162
9742.774,8.255033
9744.702,8.264117
9746.631,8.25741
9748.56,8.247374
9750.488,8.263131
9752.416,8.284485
9754.345,8.281298
9756.273,8.29803
9758.202,8.307767
9760.131,8.292541
9762.059,8.302221
9763.987,8.295635
9765.916,8.309302
9767.845,8.321944
9769.773,8.320317
9771.701,8.307418
9773.63,8.293967
9775.559,8.290191
9777.487,8.317015
9779.415,8.32293
9781.344,8.302622
9783.272,8.297466
9785.201,8.306067
9787.13,8.317919
9789.058,8.309309
9790.986,8.319675
9792.915,8.331144
9794.844,8.327145
9796.771,8.312134
9798.7,8.294734
9800.629,8.308551
9802.558,8.315185
9804.486,8.300737
9806.414,8.302865
9808.343,8.301771
9810.271,8.312895
9812.2,8.318984
9814.129,8.345023
9816.057,8.347363
9817.985,8.322564
9819.914,8.324012
9821.843,8.33763
9823.771,8.334436
9825.699,8.315695
9827.628,8.339319
9829.557,8.34501
9831.485,8.342456
9833.413,8.354013
9835.342,8.354034
9837.271,8.359225
9839.199,8.36596
9841.127,8.382651
9843.056,8.381991
9844.984,8.369697
9846.913,8.362653
9848.842,8.373069
9850.77,8.388391
9852.698,8.408463
9854.627,8.397733
9856.556,8.393111
9858.484,8.406998
9860.412,8.417428
9862.341,8.428808
9864.27,8.43766
9866.198,8.463721
9868.126,8.45085
9870.055,8.450989
9871.983,8.469738
9873.912,8.473235
9875.841,8.468921
9877.769,8.470145
9879.697,8.488752
9881.626,8.505309
9883.555,8.515676
9885.482,8.50912
9887.411,8.503054
9889.34,8.522471
9891.269,8.537354
9893.197,8.554855
9895.125,8.564317
9897.054,8.571541
9898.982,8.596473
9900.911,8.570065
9902.84,8.563182
9904.768,8.580982
9906.696,8.583046
9908.625,8.575979
9910.554,8.588945
9912.481,8.586664
9914.41,8.581275
9916.339,8.582157
9918.268,8.599379
9920.196,8.604276
9922.124,8.615005
9924.053,8.624227
9925.981,8.624044
9927.91,8.627096
9929.838,8.642782
9931.767,8.659753
9933.695,8.655753
9935.624,8.667124
9937.553,8.667157
9939.48,8.646332
9941.409,8.642341
9943.338,8.67253
9945.267,8.707477
9947.195,8.72226
9949.123,8.727792
9951.052,8.723843
9952.98,8.710138
9954.909,8.724806
9956.837,8.709875
9958.766,8.699587
9960.694,8.724326
9962.623,8.761703
9964.552,8.77638
9966.479,8.741027
9968.408,8.73032
9970.337,8.72833
9972.266,8.720515
9974.193,8.740114
9976.122,8.763425
9978.051,8.761809
9979.979,8.757278
9981.908,8.756969
9983.836,8.751966
9985.765,8.776358
9987.693,8.807967
9989.622,8.790524
9991.551,8.762321
9993.479,8.763402
9995.407,8.7659
9997.336,8.786592
9999.265,8.792316
10001.19,8.754275
10003.12,8.751237
10005.05,8.787239
10006.98,8.804254
10008.91,8.803229
10010.83,8.769001
10012.76,8.772276
10014.69,8.817797
10016.62,8.829932
10018.55,8.830182
10020.48,8.845928
10022.41,8.839366
10024.33,8.835894
10026.26,8.852119
10028.19,8.862528
10030.12,8.849974
10032.05,8.849918
10033.98,8.856079
10035.91,8.843913
10037.83,8.852743
10039.76,8.858684
10041.69,8.863735
10043.62,8.872515
10045.55,8.867751
10047.48,8.862636
10049.41,8.8537
10051.33,8.860476
10053.26,8.86842
10055.19,8.871278
10057.12,8.898645
10059.05,8.893013
10060.98,8.875406
10062.9,8.875787
10064.83,8.877457
10066.76,8.869202
10068.69,8.863577
10070.62,8.872111
10072.55,8.887702
10074.48,8.872769
10076.4,8.859586
10078.33,8.881853
10080.26,8.914001
10082.19,8.925523
10084.12,8.912867
10086.05,8.932014
10087.98,8.941137
10089.9,8.919198
10091.83,8.918051
10093.76,8.934436
10095.69,8.927971
10097.62,8.931043
10099.55,8.919622
10101.47,8.921131
10103.4,8.904522
10105.33,8.909081
10107.26,8.931413
10109.19,8.914099
10111.12,8.912967
10113.05,8.939527
10114.97,8.975822
10116.9,8.961986
10118.83,8.929495
10120.76,8.926687
10122.69,8.919172
10124.62,8.933178
10126.54,8.951221
10128.47,8.95936
10130.4,8.946904
10132.33,8.955125
10134.26,8.928858
10136.19,8.917612
10138.12,8.931647
10140.04,8.940724
10141.97,8.952531
10143.9,8.949687
10145.83,8.946141
10147.76,8.947407
10149.69,8.945171
10151.62,8.930129
10153.54,8.927079
10155.47,8.958338
10157.4,8.953799
10159.33,8.960148
10161.26,8.961628
10163.19,8.93641
10165.12,8.925881
10167.04,8.940007
10168.97,8.941024
10170.9,8.950058
10172.83,8.967644
10174.76,8.940076
10176.69,8.919401
10178.61,8.946571
10180.54,8.966158
10182.47,8.964962
10184.4,8.967461
10186.33,8.970675
10188.26,8.969929
10190.19,8.977394
10192.11,8.969862
10194.04,8.974665
10195.97,8.98812
10197.9,8.969226
10199.83,8.958239
10201.76,8.958403
10203.69,8.959959
10205.61,8.96752
10207.54,8.977631
10209.47,8.966801
10211.4,8.944268
10213.33,8.960659
10215.26,8.970683
10217.18,8.968645
10219.11,8.978375
10221.04,8.985637
10222.97,8.967893
10224.9,8.946897
10226.83,8.920967
10228.76,8.91968
10230.68,8.927485
10232.61,8.95031
10234.54,8.952993
10236.47,8.963462
10238.4,8.956064
10240.33,8.950378
10242.25,8.950841
10244.18,8.929346
10246.11,8.942605
10248.04,8.945417
10249.97,8.954261
10251.9,8.953961
10253.83,8.951119
10255.75,8.945144
10257.68,8.897755
10259.61,8.896956
10261.54,8.913638
10263.47,8.934451
10265.4,8.920563
10267.33,8.920204
10269.25,8.955984
10271.18,8.942868
10273.11,8.921662
10275.04,8.920838
10276.97,8.926697
10278.9,8.915914
10280.83,8.930503
10282.75,8.950694
10284.68,8.941621
10286.61,8.924653
10288.54,8.930924
10290.47,8.952661
10292.4,8.943798
10294.32,8.933954
10296.25,8.945409
10298.18,8.949936
10300.11,8.926946
10302.04,8.907959
10303.97,8.926495
10305.9,8.954902
10307.82,8.963804
10309.75,8.941551
10311.68,8.917911
10313.61,8.90539
10315.54,8.890649
10317.47,8.894721
10319.4,8.903278
10321.32,8.920074
10323.25,8.931754
10325.18,8.930252
10327.11,8.910952
10329.04,8.925123
10330.97,8.931216
10332.89,8.917432
10334.82,8.921254
10336.75,8.934827
10338.68,8.920505
10340.61,8.902216
10342.54,8.885855
10344.47,8.880051
10346.39,8.892103
10348.32,8.88849
10350.25,8.901869
10352.18,8.929069
10354.11,8.916005
10356.04,8.945422
10357.96,8.944234
10359.89,8.928273
10361.82,8.909717
10363.75,8.913157
10365.68,8.938116
10367.61,8.880692
10369.54,8.899816
10371.46,8.921958
10373.39,8.887892
10375.32,8.897714
10377.25,8.902396
10379.18,8.864682
10381.11,8.85646
10383.04,8.870314
10384.96,8.887616
10386.89,8.894363
10388.82,8.867603
10390.75,8.866094
10392.68,8.885685
10394.61,8.904238
10396.54,8.880849
10398.46,8.867146
10400.39,8.86265
10402.32,8.88842
10404.25,8.85654
10406.18,8.817974
10408.11,8.825107
10410.03,8.856254
10411.96,8.859666
10413.89,8.839147
10415.82,8.847763
10417.75,8.865146
10419.68,8.855371
10421.61,8.860106
10423.53,8.864534
10425.46,8.882319
10427.39,8.867109
10429.32,8.811998
10431.25,8.811094
10433.18,8.873961
10435.1,8.885765
10437.03,8.831878
10438.96,8.760938
10440.89,8.78231
10442.82,8.830146
10444.75,8.848489
10446.68,8.863842
10448.6,8.837312
10450.53,8.792461
10452.46,8.780478
10454.39,8.786061
10456.32,8.805138
10458.25,8.807158
10460.18,8.814764
10462.1,8.811195
10464.03,8.800668
10465.96,8.753652
10467.89,8.707978
10469.82,8.741834
10471.75,8.755507
10473.67,8.716973
10475.6,8.7127
10477.53,8.758562
10479.46,8.779286
10481.39,8.741056
10483.32,8.730917
10485.25,8.72523
10487.17,8.732133
10489.1,8.726137
10491.03,8.714759
10492.96,8.714244
10494.89,8.679585
10496.82,8.677917
10498.75,8.718542
10500.67,8.740197
10502.6,8.681227
10504.53,8.622481
10506.46,8.638095
10508.39,8.63776
10510.32,8.612733
10512.25,8.644503
10514.17,8.653387
10516.1,8.608963
10518.03,8.592875
10519.96,8.597392
10521.89,8.621108
10523.82,8.570253
10525.74,8.568233
10527.67,8.586646
10529.6,8.549606
10531.53,8.547681
10533.46,8.564117
10535.39,8.547063
10537.32,8.525166
10539.24,8.522387
10541.17,8.524603
10543.1,8.535593
10545.03,8.50552
10546.96,8.47634
10548.89,8.485084
10550.81,8.498558
10552.74,8.463893
10554.67,8.439397
10556.6,8.447196
10558.53,8.413068
10560.46,8.399365
10562.39,8.411089
10564.31,8.374046
10566.24,8.360177
10568.17,8.375983
10570.1,8.330488
10572.03,8.318786
10573.96,8.328839
10575.89,8.291545
10577.81,8.27723
10579.74,8.26112
10581.67,8.218595
10583.6,8.237807
10585.53,8.236055
10587.46,8.21501
10589.38,8.188297
10591.31,8.168545
10593.24,8.142588
10595.17,8.136144
10597.1,8.120228
10599.03,8.117803
10600.96,8.10582
10602.88,8.092141
10604.81,8.048201
10606.74,8.024194
10608.67,8.001736
10610.6,7.950352
10612.53,7.91709
10614.46,7.90783
10616.38,7.892817
10618.31,7.893453
10620.24,7.884379
10622.17,7.862485
10624.1,7.844873
10626.03,7.839938
10627.96,7.874159
10629.88,7.856522
10631.81,7.771781
10633.74,7.767123
10635.67,7.736435
10637.6,7.689448
10639.53,7.68876
10641.45,7.681501
10643.38,7.613266
10645.31,7.558637
10647.24,7.560474
10649.17,7.534961
10651.1,7.524121
10653.03,7.480251
10654.95,7.467893
10656.88,7.493704
10658.81,7.486775
10660.74,7.439139
10662.67,7.414147
10664.6,7.44918
10666.52,7.45777
10668.45,7.38482
10670.38,7.346417
10672.31,7.329815
10674.24,7.311951
10676.17,7.275939
10678.1,7.279167
10680.02,7.260971
10681.95,7.227038
10683.88,7.232603
10685.81,7.261055
10687.74,7.237585
10689.67,7.226896
10691.59,7.164584
10693.52,7.122544
10695.45,7.117458
10697.38,7.12655
10699.31,7.141238
10701.24,7.097816
10703.17,7.062313
10705.09,7.080017
10707.02,7.123173
10708.95,7.130721
10710.88,7.103038
10712.81,7.04923
10714.74,7.049771
10716.67,7.053312
10718.59,7.074129
10720.52,7.122192
10722.45,7.120357
10724.38,7.079803
10726.31,7.099741
10728.24,7.096169
10730.17,7.074962
10732.09,7.027718
10734.02,7.034084
10735.95,7.040489
10737.88,7.036049
10739.81,7.076775
10741.74,7.065731
10743.67,7.079135
10745.59,7.1086
10747.52,7.103168
10749.45,7.082592
10751.38,7.093269
10753.31,7.113843
10755.24,7.121518
10757.16,7.128912
10759.09,7.113235
10761.02,7.143718
10762.95,7.160944
10764.88,7.133611
10766.81,7.124296
10768.74,7.161863
10770.66,7.182498
10772.59,7.212929
10774.52,7.204466
10776.45,7.189599
10778.38,7.220288
10780.31,7.258727
10782.23,7.253007
10784.16,7.252245
10786.09,7.291233
10788.02,7.304554
10789.95,7.338678
10791.88,7.346879
10793.81,7.312469
10795.73,7.32619
10797.66,7.353611
10799.59,7.420964
10801.52,7.460498
10803.45,7.411481
10805.38,7.43064
10807.3,7.473671
10809.23,7.448676
10811.16,7.465117
10813.09,7.497378
10815.02,7.51562
10816.95,7.484308
10818.88,7.502532
10820.8,7.544915
10822.73,7.560368
10824.66,7.573032
10826.59,7.55012
10828.52,7.586156
10830.45,7.614411
10832.38,7.646052
10834.3,7.695192
10836.23,7.691822
10838.16,7.679695
10840.09,7.685352
10842.02,7.688135
10843.95,7.738741
10845.88,7.754318
10847.8,7.71942
10849.73,7.729512
10851.66,7.770476
10853.59,7.753679
10855.52,7.78299
10857.45,7.848139
10859.38,7.853349
10861.3,7.812557
10863.23,7.845395
10865.16,7.932785
10867.09,7.953426
10869.02,7.942884
10870.95,7.93314
10872.87,7.918585
10874.8,7.9415
10876.73,7.978968
10878.66,8.0109
10880.59,8.032384
10882.52,7.996379
10884.45,7.981071
10886.37,8.031463
10888.3,8.059313
10890.23,8.059146
10892.16,8.053352
10894.09,8.071472
10896.02,8.064317
10897.94,8.075011
10899.87,8.112
10901.8,8.124152
10903.73,8.132547
10905.66,8.136179
10907.59,8.126899
10909.52,8.149223
10911.44,8.224084
10913.37,8.237553
10915.3,8.214612
10917.23,8.239162
10919.16,8.249806
10921.09,8.256916
10923.01,8.284074
10924.94,8.281438
10926.87,8.247634
10928.8,8.256209
10930.73,8.273466
10932.66,8.341503
10934.59,8.353209
10936.51,8.32863
10938.44,8.345391
10940.37,8.381332
10942.3,8.380938
10944.23,8.314863
10946.16,8.304512
10948.09,8.387396
10950.01,8.386976
10951.94,8.377798
10953.87,8.366302
10955.8,8.356808
10957.73,8.414524
10959.66,8.394684
10961.58,8.437696
10963.51,8.496111
10965.44,8.517781
10967.37,8.519672
10969.3,8.53574
10971.23,8.56202
10973.16,8.534443
10975.08,8.545722
10977.01,8.583223
10978.94,8.568041
10980.87,8.552029
10982.8,8.586821
10984.73,8.57986
10986.66,8.603624
10988.58,8.642056
10990.51,8.627714
10992.44,8.648303
10994.37,8.650912
10996.3,8.664613
10998.23,8.681387
11000.16,8.720924
11002.08,8.698118
11004.01,8.715543
11005.94,8.707549
11007.87,8.674467
11009.8,8.662787
11011.73,8.671611
11013.65,8.697717
11015.58,8.71897
11017.51,8.731199
11019.44,8.745125
11021.37,8.757376
11023.3,8.759376
11025.23,8.775458
11027.15,8.727736
11029.08,8.751
11031.01,8.788482
11032.94,8.802607
11034.87,8.82133
11036.8,8.790617
11038.72,8.778037
11040.65,8.83653
11042.58,8.810436
11044.51,8.798471
11046.44,8.842278
11048.37,8.843417
11050.3,8.820113
11052.22,8.832357
11054.15,8.863227
11056.08,8.858608
11058.01,8.837666
11059.94,8.848539
11061.87,8.856027
11063.79,8.849185
11065.72,8.893302
11067.65,8.891948
11069.58,8.880131
11071.51,8.869197
11073.44,8.891496
11075.37,8.928756
11077.29,8.951326
11079.22,8.915817
11081.15,8.851614
11083.08,8.856272
11085.01,8.867088
11086.94,8.885395
11088.87,8.893423
11090.79,8.928175
11092.72,8.945558
11094.65,8.914847
11096.58,8.877889
11098.51,8.917203
11100.44,8.94643
11102.37,8.925797
11104.29,8.930039
11106.22,8.938236
11108.15,8.928112
11110.08,8.945805
11112.01,8.910844
11113.94,8.854537
11115.87,8.86604
11117.79,8.877497
11119.72,8.896856
11121.65,8.912367
11123.58,8.992247
11125.51,9.046481
11127.44,9.080743
11129.36,8.977154
11131.29,8.933623
11133.22,8.975862
11135.15,9.031831
11137.08,9.029949
11139.01,9.032209
11140.94,9.031912
11142.86,9.011612
11144.79,9.012484
11146.72,9.009292
11148.65,8.995719
11150.58,8.950745
11152.51,8.954906
11154.43,8.962777
11156.36,8.963579
11158.29,8.987624
11160.22,9.030019
11162.15,9.058144
11164.08,9.018197
11166.01,8.977783
11167.93,9.027966
11169.86,9.074698
11171.79,9.076976
11173.72,9.021601
11175.65,9.038164
11177.58,9.009683
11179.5,9.038941
11181.43,9.052899
11183.36,9.021572
11185.29,9.062484
11187.22,9.061321
11189.15,9.030169
11191.08,9.073157
11193.0,9.10708
11194.93,9.090462
11196.86,9.059329
11198.79,9.135934
11200.72,9.080967
11202.65,9.050864
11204.58,9.133515
11206.5,9.210717
11208.43,9.218692
11210.36,9.175332
11212.29,9.124127
11214.22,9.156454
11216.15,9.15555
11218.08,9.174938
11220.0,9.146099
11221.93,9.08812
11223.86,9.132485
11225.79,9.147039
11227.72,9.164942
11229.65,9.195641
11231.58,9.173859
11233.5,9.19476
11235.43,9.175849
11237.36,9.150584
11239.29,9.177396
11241.22,9.214876
11243.15,9.273772
11245.07,9.177853
11247.0,9.138706
11248.93,9.213552
11250.86,9.266086
11252.79,9.31555
11254.72,9.274894
11256.65,9.216294
11258.57,9.220343
11260.5,9.214454
11262.43,9.271155
11264.36,9.276705
11266.29,9.224972
11268.22,9.225178
11270.14,9.279231
11272.07,9.232659
11274.0,9.243207
11275.93,9.264462
11277.86,9.262659
11279.79,9.351822
11281.72,9.38548
11283.64,9.352983
11285.57,9.317383
11287.5,9.283334
11289.43,9.329268
11291.36,9.346002
11293.29,9.29334
11295.21,9.308701
11297.14,9.302704
11299.07,9.282105
11301.0,9.330912
11302.93,9.313403
11304.86,9.274424
11306.79,9.250613
11308.71,9.218521
11310.64,9.279637
11312.57,9.317999
11314.5,9.229918
11316.43,9.250013
11318.36,9.300564
11320.29,9.336768
11322.21,9.354716
11324.14,9.289642
11326.07,9.249604
11328.0,9.273991
11329.93,9.327904
11331.86,9.387853
11333.79,9.431483
11335.71,9.38743
11337.64,9.301685
11339.57,9.292076
11341.5,9.318684
11343.43,9.34816
11345.36,9.342286
11347.28,9.299191
11349.21,9.282764
11351.14,9.347846
11353.07,9.396908
11355.0,9.423806
11356.93,9.406382
11358.86,9.35018
11360.78,9.317814
11362.71,9.382133
11364.64,9.487815
11366.57,9.412509
11368.5,9.361661
11370.43,9.438163
11372.36,9.37922
11374.28,9.33881
11376.21,9.396675
11378.14,9.504004
11380.07,9.472205
11382.0,9.443313
11383.93,9.407848
11385.85,9.367065
11387.78,9.379248
11389.71,9.406098
11391.64,9.375374
11393.57,9.373023
11395.5,9.345504
11397.43,9.368551
11399.35,9.456899
11401.28,9.495981
11403.21,9.484922
11405.14,9.488252
11407.07,9.394344
11409.0,9.395022
11410.92,9.449106
11412.85,9.456192
11414.78,9.494012
11416.71,9.450128
11418.64,9.457582
11420.57,9.488778
11422.5,9.466843
11424.42,9.467073
11426.35,9.450744
11428.28,9.449118
11430.21,9.437979
11432.14,9.410372
11434.07,9.45888
11436.0,9.470175
11437.92,9.436987
11439.85,9.390588
11441.78,9.357063
11443.71,9.423102
11445.64,9.473076
11447.57,9.47131
11449.5,9.44312
11451.42,9.479185
11453.35,9.500222
11455.28,9.467513
11457.21,9.44182
11459.14,9.478961
11461.07,9.555545
11462.99,9.572167
11464.92,9.488199
11466.85,9.43859
11468.78,9.489718
11470.71,9.521384
11472.64,9.475424
11474.57,9.489184
11476.49,9.443758
11478.42,9.446362
11480.35,9.546593
11482.28,9.581628
11484.21,9.455697
11486.14,9.416257
11488.07,9.51024
11489.99,9.479745
11491.92,9.49299
11493.85,9.512193
11495.78,9.487513
11497.71,9.5508
11499.64,9.500874
11501.56,9.393973
11503.49,9.527751
11505.42,9.590099
11507.35,9.540215
11509.28,9.497396
11511.21,9.489886
11513.14,9.402197
11515.06,9.451656
11516.99,9.470827
11518.92,9.434297
11520.85,9.433759
11522.78,9.443881
11524.71,9.489995
11526.63,9.514477
11528.56,9.505485
11530.49,9.55567
11532.42,9.618349
11534.35,9.610426
11536.28,9.555057
11538.21,9.496443
11540.13,9.507692
11542.06,9.449534
11543.99,9.434427
11545.92,9.45295
11547.85,9.529401
11549.78,9.545156
11551.71,9.479574
11553.63,9.4074
11555.56,9.440722
11557.49,9.469118
11559.42,9.489242
11561.35,9.520295
11563.28,9.482329
11565.21,9.493593
11567.13,9.541132
11569.06,9.451931
11570.99,9.461879
11572.92,9.512394
11574.85,9.545239
11576.78,9.543375
11578.7,9.590724
11580.63,9.617002
11582.56,9.611018
11584.49,9.623996
11586.42,9.568561
11588.35,9.529016
11590.28,9.531017
11592.2,9.55607
11594.13,9.519136
11596.06,9.558525
11597.99,9.602337
11599.92,9.60508
11601.85,9.516734
11603.78,9.531082
11605.7,9.565471
11607.63,9.525064
11609.56,9.521976
11611.49,9.642054
11613.42,9.601656
11615.35,9.594943
11617.27,9.687705
11619.2,9.638088
11621.13,9.564633
11623.06,9.590754
11624.99,9.611611
11626.92,9.632919
11628.85,9.550097
11630.77,9.521992
11632.7,9.506284
11634.63,9.598686
11636.56,9.71183
11638.49,9.616659
11640.42,9.549742
11642.34,9.505529
11644.27,9.552671
11646.2,9.549548
11648.13,9.540599
11650.06,9.517966
11651.99,9.548352
11653.92,9.583192
11655.84,9.588969
11657.77,9.545716
11659.7,9.543919
11661.63,9.538212
11663.56,9.556487
11665.49,9.495696
11667.42,9.531697
11669.34,9.558608
11671.27,9.56252
11673.2,9.632909
11675.13,9.646645
11677.06,9.592794
11678.99,9.536423
11680.92,9.571598
11682.84,9.672051
11684.77,9.703438
11686.7,9.684214
11688.63,9.57691
11690.56,9.567817
11692.49,9.598893
11694.41,9.642633
11696.34,9.699533
11698.27,9.694485
11700.2,9.610085
11702.13,9.535196
11704.06,9.612855
11705.99,9.566462
11707.91,9.564694
11709.84,9.609606
11711.77,9.633521
11713.7,9.60518
11715.63,9.573358
11717.56,9.553127
11719.48,9.714251
11721.41,9.81919
11723.34,9.696308
11725.27,9.608272
11727.2,9.596506
11729.13,9.5948
11731.06,9.550283
11732.98,9.535067
11734.91,9.655124
11736.84,9.653332
11738.77,9.634172
11740.7,9.605378
11742.63,9.675416
11744.56,9.673267
11746.48,9.599107
11748.41,9.579216
11750.34,9.626095
11752.27,9.517658
11754.2,9.572291
11756.13,9.618959
11758.05,9.487917
11759.98,9.486115
11761.91,9.576972
11763.84,9.59958
11765.77,9.504957
11767.7,9.469759
11769.63,9.429837
11771.55,9.476259
11773.48,9.53245
11775.41,9.590352
11777.34,9.579167
11779.27,9.582397
11781.2,9.545162
11783.13,9.578997
11785.05,9.569098
11786.98,9.508017
11788.91,9.55037
11790.84,9.585266
11792.77,9.544284
11794.7,9.64293
11796.63,9.626802
11798.55,9.568329
11800.48,9.517474
11802.41,9.535467
11804.34,9.600007
11806.27,9.650587
11808.2,9.732504
11810.12,9.7296
11812.05,9.664646
11813.98,9.595453
11815.91,9.568267
11817.84,9.521228
11819.77,9.586728
11821.7,9.619304
11823.62,9.534402
11825.55,9.55842
11827.48,9.656635
11829.41,9.655027
11831.34,9.629846
11833.27,9.544989
11835.19,9.490915
11837.12,9.493018
11839.05,9.530477
11840.98,9.591871
11842.91,9.645442
11844.84,9.536999
11846.77,9.550081
11848.69,9.541714
11850.62,9.595058
11852.55,9.674387
11854.48,9.669554
11856.41,9.636105
11858.34,9.467253
11860.27,9.536965
11862.19,9.575841
11864.12,9.570784
11866.05,9.640457
11867.98,9.589551
11869.91,9.592912
11871.84,9.640696
11873.76,9.658138
11875.69,9.641768
11877.62,9.598706
11879.55,9.506609
11881.48,9.54388
11883.41,9.573182
11885.34,9.562695
11887.26,9.474138
11889.19,9.460681
11891.12,9.507667
11893.05,9.454133
11894.98,9.51247
11896.91,9.596075
11898.83,9.701904
11900.76,9.652657
11902.69,9.626677
11904.62,9.628429
11906.55,9.643271
11908.48,9.649384
11910.41,9.669189
11912.33,9.793992
11914.26,9.763822
11916.19,9.603441
11918.12,9.644408
11920.05,9.579714
11921.98,9.611015
11923.91,9.574051
11925.83,9.53809
11927.76,9.611259
11929.69,9.659505
11931.62,9.733214
11933.55,9.812667
11935.48,9.682439
11937.41,9.601963
11939.33,9.623522
11941.26,9.579398
11943.19,9.572334
11945.12,9.702261
11947.05,9.70339
11948.98,9.62984
11950.9,9.614183
11952.83,9.697201
11954.76,9.673082
11956.69,9.567457
11958.62,9.590827
11960.55,9.688516
11962.48,9.663948
11964.4,9.63768
11966.33,9.642604
11968.26,9.625294
11970.19,9.639611
11972.12,9.568892
11974.05,9.566797
11975.98,9.61378
11977.9,9.633366
11979.83,9.577147
11981.76,9.581449
11983.69,9.63604
11985.62,9.515604
11987.55,9.480125
11989.47,9.467844
11991.4,9.527931
11993.33,9.606578
11995.26,9.735248
11997.19,9.698263
11999.12,9.589207
