Wavenumber,Intensity
3999.706,3.501027
4001.634,3.499432
4003.563,3.499439
4005.491,3.50069
4007.42,3.50403
4009.348,3.509586
4011.277,3.508882
4013.205,3.504733
4015.134,3.502934
4017.062,3.508139
4018.991,3.509471
4020.919,3.512812
4022.848,3.515557
4024.776,3.517152
4026.705,3.518103
4028.633,3.519774
4030.562,3.520349
4032.49,3.522442
4034.419,3.521382
4036.347,3.52083
4038.276,3.518749
4040.204,3.521643
4042.133,3.527877
4044.061,3.532373
4045.99,3.53438
4047.918,3.530165
4049.847,3.52976
4051.775,3.532062
4053.704,3.53017
4055.632,3.531329
4057.561,3.538197
4059.489,3.539962
4061.418,3.539325
4063.346,3.539469
4065.275,3.537717
4067.203,3.538704
4069.132,3.543411
4071.06,3.545887
4072.989,3.544763
4074.917,3.545563
4076.846,3.548033
4078.774,3.552671
4080.703,3.551038
4082.631,3.549444
4084.56,3.548643
4086.488,3.550288
4088.417,3.552924
4090.345,3.554729
4092.274,3.560232
4094.202,3.55953
4096.131,3.55789
4098.059,3.560097
4099.988,3.563658
4101.916,3.566686
4103.845,3.565429
4105.773,3.564586
4107.702,3.564351
4109.63,3.562944
4111.559,3.56138
4113.487,3.558918
4115.416,3.565648
4117.344,3.570565
4119.273,3.567431
4121.201,3.564626
4123.13,3.563869
4125.058,3.565297
4126.987,3.567917
4128.915,3.570354
4130.844,3.567943
4132.772,3.568137
4134.701,3.571467
4136.629,3.567111
4138.558,3.566447
4140.486,3.571495
4142.415,3.573228
4144.343,3.573619
4146.271,3.572873
4148.2,3.571179
4150.129,3.57295
4152.057,3.575189
4153.986,3.575311
4155.914,3.57996
4157.843,3.57984
4159.771,3.575298
4161.7,3.577322
4163.628,3.580925
4165.557,3.58216
4167.485,3.584571
4169.414,3.586809
4171.342,3.588332
4173.271,3.590161
4175.199,3.590565
4177.127,3.594336
4179.056,3.594338
4180.985,3.594811
4182.913,3.595505
4184.842,3.597373
4186.77,3.600915
4188.699,3.605397
4190.627,3.606362
4192.556,3.606882
4194.484,3.612759
4196.413,3.619026
4198.341,3.616058
4200.27,3.617918
4202.198,3.621652
4204.126,3.627257
4206.055,3.626196
4207.983,3.629465
4209.912,3.634565
4211.841,3.634406
4213.769,3.634928
4215.698,3.639736
4217.626,3.644102
4219.555,3.643904
4221.483,3.647305
4223.412,3.649322
4225.34,3.650594
4227.269,3.650599
4229.197,3.652667
4231.125,3.656744
4233.054,3.656438
4234.982,3.657956
4236.911,3.662976
4238.84,3.661896
4240.768,3.660888
4242.697,3.663684
4244.625,3.664551
4246.554,3.666
4248.482,3.669791
4250.411,3.67138
4252.339,3.671665
4254.268,3.67564
4256.196,3.677303
4258.125,3.677336
4260.053,3.68035
4261.981,3.683523
4263.91,3.682671
4265.838,3.680972
4267.767,3.683628
4269.696,3.683767
4271.624,3.684583
4273.553,3.687648
4275.481,3.688467
4277.41,3.691299
4279.338,3.689823
4281.267,3.690453
4283.195,3.694515
4285.124,3.695031
4287.052,3.696119
4288.98,3.696326
4290.909,3.696547
4292.837,3.697286
4294.766,3.698677
4296.694,3.702286
4298.623,3.700735
4300.552,3.697845
4302.48,3.697785
4304.409,3.700407
4306.337,3.700331
4308.266,3.699154
4310.194,3.699616
4312.123,3.701232
4314.051,3.702204
4315.979,3.701611
4317.908,3.700274
4319.836,3.701126
4321.765,3.701805
4323.693,3.699251
4325.622,3.698937
4327.551,3.700962
4329.479,3.703111
4331.408,3.701697
4333.336,3.700686
4335.265,3.703042
4337.193,3.703274
4339.122,3.706835
4341.05,3.707413
4342.979,3.707949
4344.907,3.710172
4346.835,3.705463
4348.764,3.707673
4350.692,3.712632
4352.621,3.715046
4354.549,3.714677
4356.478,3.713688
4358.407,3.710122
4360.335,3.710633
4362.264,3.709167
4364.192,3.707196
4366.121,3.710893
4368.049,3.712487
4369.978,3.711625
4371.906,3.713096
4373.834,3.713805
4375.763,3.714041
4377.691,3.712182
4379.62,3.710558
4381.548,3.710451
4383.477,3.709512
4385.405,3.706444
4387.334,3.70421
4389.263,3.704967
4391.191,3.705178
4393.12,3.70659
4395.048,3.703928
4396.977,3.703329
4398.905,3.704643
4400.833,3.706996
4402.762,3.70874
4404.69,3.707382
4406.619,3.708937
4408.547,3.710251
4410.476,3.710957
4412.404,3.712093
4414.333,3.712498
4416.262,3.712369
4418.19,3.715466
4420.119,3.715534
4422.047,3.718421
4423.976,3.724444
4425.904,3.728693
4427.833,3.732976
4429.761,3.738866
4431.689,3.743069
4433.618,3.75162
4435.546,3.762452
4437.475,3.778989
4439.403,3.797411
4441.332,3.812002
4443.26,3.826918
4445.189,3.839595
4447.117,3.852669
4449.046,3.871322
4450.975,3.888731
4452.903,3.90435
4454.832,3.918514
4456.76,3.935937
4458.688,3.950873
4460.617,3.965457
4462.545,3.979621
4464.474,3.986948
4466.402,3.997426
4468.331,4.007777
4470.259,4.016164
4472.188,4.026214
4474.116,4.035851
4476.045,4.046239
4477.974,4.054343
4479.902,4.060692
4481.831,4.066206
4483.759,4.072362
4485.688,4.079748
4487.616,4.078907
4489.544,4.08215
4491.473,4.089959
4493.401,4.093887
4495.33,4.094555
4497.258,4.09516
4499.187,4.099753
4501.115,4.104908
4503.044,4.104815
4504.972,4.107646
4506.901,4.109252
4508.83,4.108438
4510.758,4.113122
4512.687,4.1212
4514.615,4.124851
4516.543,4.125996
4518.472,4.131855
4520.4,4.138144
4522.329,4.142713
4524.257,4.147037
4526.186,4.149068
4528.114,4.153322
4530.043,4.159009
4531.971,4.15949
4533.9,4.162615
4535.828,4.170529
4537.757,4.177708
4539.686,4.181728
4541.614,4.183597
4543.542,4.18364
4545.471,4.188206
4547.399,4.186762
4549.328,4.187021
4551.256,4.189056
4553.185,4.191489
4555.113,4.195018
4557.042,4.195466
4558.97,4.195304
4560.899,4.199213
4562.827,4.202354
4564.756,4.204769
4566.685,4.205198
4568.613,4.210171
4570.542,4.218787
4572.47,4.228763
4574.398,4.237629
4576.327,4.249056
4578.255,4.256462
4580.184,4.26635
4582.112,4.280498
4584.041,4.29728
4585.969,4.31288
4587.898,4.326514
4589.826,4.343253
4591.755,4.358737
4593.683,4.377293
4595.612,4.396389
4597.54,4.414112
4599.469,4.428071
4601.397,4.440543
4603.326,4.453426
4605.254,4.463341
4607.183,4.476145
4609.111,4.489849
4611.04,4.500855
4612.968,4.511363
4614.897,4.516294
4616.825,4.523859
4618.754,4.533237
4620.682,4.540056
4622.611,4.545592
4624.539,4.547882
4626.468,4.550565
4628.396,4.556529
4630.325,4.566325
4632.253,4.570488
4634.182,4.57348
4636.11,4.582041
4638.039,4.591362
4639.967,4.599436
4641.896,4.609983
4643.824,4.617294
4645.753,4.628016
4647.681,4.639207
4649.61,4.648211
4651.538,4.657664
4653.467,4.668354
4655.396,4.678839
4657.324,4.689931
4659.252,4.700722
4661.181,4.715817
4663.109,4.727105
4665.038,4.736239
4666.966,4.748802
4668.895,4.760779
4670.823,4.770433
4672.752,4.779657
4674.68,4.786458
4676.609,4.796074
4678.537,4.806937
4680.466,4.814193
4682.394,4.820817
4684.323,4.826773
4686.251,4.827916
4688.18,4.831965
4690.108,4.835346
4692.037,4.834682
4693.965,4.838444
4695.894,4.846735
4697.822,4.847947
4699.751,4.850591
4701.679,4.855422
4703.608,4.859753
4705.536,4.865765
4707.465,4.868258
4709.393,4.869967
4711.322,4.87467
4713.25,4.877749
4715.179,4.880665
4717.107,4.881071
4719.036,4.882095
4720.964,4.884788
4722.893,4.883079
4724.821,4.884949
4726.75,4.887363
4728.678,4.884796
4730.606,4.888222
4732.535,4.892934
4734.464,4.8969
4736.392,4.898076
4738.321,4.903568
4740.249,4.909114
4742.178,4.911222
4744.106,4.910896
4746.035,4.910652
4747.963,4.908856
4749.892,4.909992
4751.82,4.908366
4753.749,4.907877
4755.677,4.902558
4757.605,4.89796
4759.534,4.895673
4761.463,4.890201
4763.391,4.883713
4765.32,4.881282
4767.248,4.875962
4769.177,4.871112
4771.105,4.870775
4773.034,4.867457
4774.962,4.861931
4776.891,4.857152
4778.819,4.853263
4780.748,4.850484
4782.676,4.846691
4784.604,4.84148
4786.533,4.838581
4788.462,4.836081
4790.39,4.831862
4792.319,4.833905
4794.247,4.836572
4796.176,4.834444
4798.104,4.833308
4800.033,4.836788
4801.961,4.837437
4803.89,4.835797
4805.818,4.838013
4807.747,4.842455
4809.675,4.840426
4811.604,4.835731
4813.532,4.837945
4815.46,4.839812
4817.389,4.839915
4819.317,4.843081
4821.246,4.849929
4823.175,4.851122
4825.103,4.850439
4827.032,4.853239
4828.96,4.855086
4830.889,4.85669
4832.817,4.857675
4834.746,4.857916
4836.674,4.857337
4838.603,4.855961
4840.531,4.852693
4842.459,4.852301
4844.388,4.852582
4846.316,4.85189
4848.245,4.85063
4850.174,4.852756
4852.102,4.855481
4854.031,4.859121
4855.959,4.86315
4857.888,4.86765
4859.816,4.871367
4861.745,4.875707
4863.673,4.879555
4865.602,4.885063
4867.53,4.890114
4869.458,4.896621
4871.387,4.902437
4873.315,4.905898
4875.244,4.910211
4877.172,4.91456
4879.101,4.920213
4881.03,4.922163
4882.958,4.922753
4884.887,4.922641
4886.815,4.922894
4888.744,4.926551
4890.672,4.931056
4892.601,4.932345
4894.529,4.935932
4896.458,4.937982
4898.386,4.937715
4900.314,4.935171
4902.243,4.932121
4904.171,4.932927
4906.1,4.932033
4908.028,4.930259
4909.957,4.927221
4911.886,4.9222
4913.814,4.918849
4915.743,4.9172
4917.671,4.912784
4919.6,4.911315
4921.528,4.9108
4923.457,4.911561
4925.385,4.911429
4927.313,4.910412
4929.242,4.908415
4931.17,4.906063
4933.099,4.906652
4935.027,4.906147
4936.956,4.902222
4938.885,4.897029
4940.813,4.898774
4942.742,4.899865
4944.67,4.895885
4946.599,4.894599
4948.527,4.888996
4950.456,4.883568
4952.384,4.879179
4954.313,4.876173
4956.241,4.872174
4958.169,4.869494
4960.098,4.865386
4962.026,4.85798
4963.955,4.85399
4965.883,4.84999
4967.812,4.848154
4969.74,4.847904
4971.669,4.846008
4973.598,4.843634
4975.526,4.840722
4977.455,4.837631
4979.383,4.831316
4981.312,4.826664
4983.24,4.821693
4985.168,4.818011
4987.097,4.813074
4989.025,4.808276
4990.954,4.804633
4992.882,4.798045
4994.811,4.788461
4996.739,4.782805
4998.668,4.776957
5000.597,4.769801
5002.525,4.761117
5004.454,4.750139
5006.382,4.742641
5008.311,4.735897
5010.239,4.728545
5012.167,4.718164
5014.096,4.708597
5016.024,4.698839
5017.953,4.684124
5019.881,4.674429
5021.81,4.66857
5023.738,4.658576
5025.667,4.645442
5027.596,4.635752
5029.524,4.627676
5031.452,4.618858
5033.381,4.610301
5035.31,4.603624
5037.238,4.59838
5039.167,4.595765
5041.095,4.590965
5043.023,4.584858
5044.952,4.579346
5046.88,4.576454
5048.809,4.574027
5050.737,4.570648
5052.666,4.568612
5054.595,4.570823
5056.523,4.570267
5058.451,4.567275
5060.38,4.567571
5062.309,4.573373
5064.237,4.572152
5066.166,4.571992
5068.094,4.572455
5070.022,4.570868
5071.951,4.570094
5073.879,4.574011
5075.808,4.576944
5077.736,4.581563
5079.665,4.587626
5081.593,4.593046
5083.522,4.597925
5085.45,4.600873
5087.379,4.600875
5089.308,4.604756
5091.236,4.608727
5093.165,4.61113
5095.093,4.615202
5097.021,4.617908
5098.95,4.616708
5100.878,4.619712
5102.807,4.624921
5104.735,4.627997
5106.664,4.632196
5108.592,4.635511
5110.521,4.638068
5112.449,4.642838
5114.378,4.644708
5116.307,4.646127
5118.235,4.649728
5120.163,4.650661
5122.092,4.651711
5124.021,4.651161
5125.949,4.650768
5127.877,4.650316
5129.806,4.649981
5131.734,4.64878
5133.663,4.649992
5135.591,4.649074
5137.52,4.646881
5139.448,4.644742
5141.377,4.644159
5143.305,4.64589
5145.234,4.646697
5147.162,4.648825
5149.091,4.649126
5151.02,4.652433
5152.948,4.653054
5154.876,4.656614
5156.805,4.660259
5158.733,4.658785
5160.662,4.656206
5162.59,4.656446
5164.519,4.658588
5166.447,4.655418
5168.376,4.654202
5170.304,4.65669
5172.233,4.657476
5174.161,4.661183
5176.09,4.663666
5178.019,4.664269
5179.947,4.665759
5181.875,4.666912
5183.804,4.670468
5185.732,4.672277
5187.661,4.66404
5189.589,4.665281
5191.518,4.66091
5193.446,4.657969
5195.375,4.654855
5197.303,4.656225
5199.232,4.642047
5201.16,4.632976
5203.089,4.62641
5205.018,4.62889
5206.946,4.636559
5208.874,4.621741
5210.803,4.605819
5212.731,4.597474
5214.66,4.596901
5216.588,4.599358
5218.517,4.603861
5220.445,4.605261
5222.374,4.609209
5224.302,4.615997
5226.231,4.628017
5228.159,4.619272
5230.088,4.621221
5232.016,4.630599
5233.945,4.631133
5235.873,4.631934
5237.802,4.632205
5239.73,4.63445
5241.659,4.633739
5243.587,4.645227
5245.516,4.645447
5247.444,4.641015
5249.373,4.642364
5251.301,4.629291
5253.229,4.627718
5255.158,4.635788
5257.087,4.62636
5259.015,4.613305
5260.944,4.61444
5262.872,4.614601
5264.801,4.619068
5266.729,4.605817
5268.658,4.601474
5270.586,4.597046
5272.515,4.591796
5274.443,4.592331
5276.372,4.588293
5278.3,4.587666
5280.229,4.591407
5282.157,4.587439
5284.086,4.591415
5286.014,4.593844
5287.943,4.584792
5289.871,4.595001
5291.8,4.599048
5293.729,4.593505
5295.657,4.594686
5297.585,4.598401
5299.514,4.603746
5301.442,4.605038
5303.371,4.60662
5305.299,4.605938
5307.228,4.613802
5309.156,4.615568
5311.085,4.608035
5313.013,4.609302
5314.941,4.612726
5316.87,4.61807
5318.799,4.61511
5320.727,4.614589
5322.656,4.616336
5324.584,4.615723
5326.513,4.62359
5328.441,4.631072
5330.37,4.621047
5332.298,4.622993
5334.227,4.621682
5336.155,4.628253
5338.084,4.647275
5340.012,4.650906
5341.94,4.631703
5343.869,4.647273
5345.798,4.665849
5347.726,4.658555
5349.655,4.654085
5351.583,4.651011
5353.512,4.673849
5355.44,4.671107
5357.369,4.657797
5359.297,4.659774
5361.226,4.66185
5363.154,4.661361
5365.083,4.657833
5367.011,4.650756
5368.939,4.642055
5370.868,4.63133
5372.797,4.625737
5374.725,4.621584
5376.654,4.61876
5378.582,4.607947
5380.511,4.582878
5382.439,4.574975
5384.368,4.570506
5386.296,4.572902
5388.225,4.553687
5390.153,4.538554
5392.082,4.530264
5394.01,4.537493
5395.938,4.527945
5397.867,4.51471
5399.796,4.499053
5401.724,4.490671
5403.652,4.483684
5405.581,4.475753
5407.51,4.461767
5409.438,4.463783
5411.367,4.452085
5413.295,4.438704
5415.224,4.425419
5417.152,4.397911
5419.081,4.381495
5421.009,4.372032
5422.938,4.365694
5424.866,4.355341
5426.795,4.345616
5428.723,4.351937
5430.651,4.346272
5432.58,4.324164
5434.509,4.319731
5436.437,4.317303
5438.366,4.30055
5440.294,4.296753
5442.223,4.29514
5444.151,4.281453
5446.08,4.281552
5448.008,4.268549
5449.937,4.262397
5451.865,4.253549
5453.793,4.242443
5455.722,4.239696
5457.65,4.237191
5459.579,4.233891
5461.508,4.234594
5463.436,4.228395
5465.365,4.221248
5467.293,4.21862
5469.222,4.217905
5471.15,4.21068
5473.079,4.206954
5475.007,4.217491
5476.936,4.216736
5478.864,4.205429
5480.792,4.207314
5482.721,4.205187
5484.649,4.205899
5486.578,4.203767
5488.507,4.207168
5490.435,4.204817
5492.363,4.216221
5494.292,4.21705
5496.221,4.204411
5498.149,4.207933
5500.078,4.214335
5502.006,4.211648
5503.935,4.214375
5505.863,4.215831
5507.792,4.223545
5509.72,4.221539
5511.648,4.217619
5513.577,4.218922
5515.505,4.223363
5517.434,4.226701
5519.362,4.227739
5521.291,4.229658
5523.22,4.227837
5525.148,4.223502
5527.077,4.224509
5529.005,4.227233
5530.934,4.230709
5532.862,4.234194
5534.791,4.235637
5536.719,4.23755
5538.647,4.238046
5540.576,4.240256
5542.504,4.245655
5544.433,4.24764
5546.361,4.24908
5548.29,4.249785
5550.219,4.251051
5552.147,4.254763
5554.076,4.257895
5556.004,4.259448
5557.933,4.2587
5559.861,4.255463
5561.79,4.258662
5563.718,4.261902
5565.646,4.262707
5567.575,4.262985
5569.503,4.267657
5571.432,4.26713
5573.36,4.265808
5575.289,4.265162
5577.218,4.26396
5579.146,4.264525
5581.074,4.265243
5583.003,4.269335
5584.932,4.273123
5586.86,4.273627
5588.789,4.271901
5590.717,4.272593
5592.646,4.270576
5594.574,4.270304
5596.502,4.27181
5598.431,4.267344
5600.359,4.26155
5602.288,4.260129
5604.216,4.256747
5606.145,4.251431
5608.073,4.242434
5610.002,4.235873
5611.931,4.229429
5613.859,4.218635
5615.788,4.209412
5617.716,4.199606
5619.645,4.192044
5621.573,4.187757
5623.501,4.181047
5625.43,4.174103
5627.358,4.171807
5629.287,4.168827
5631.215,4.160914
5633.144,4.156611
5635.072,4.151754
5637.001,4.148337
5638.93,4.14428
5640.858,4.134113
5642.786,4.127067
5644.715,4.120225
5646.644,4.117848
5648.572,4.114784
5650.5,4.111315
5652.429,4.110691
5654.357,4.107813
5656.286,4.10931
5658.214,4.11084
5660.143,4.110379
5662.071,4.107153
5664.0,4.107666
5665.929,4.110228
5667.857,4.111282
5669.785,4.113416
5671.714,4.112691
5673.643,4.113452
5675.571,4.113609
5677.5,4.111104
5679.428,4.111402
5681.356,4.107256
5683.285,4.105373
5685.213,4.110994
5687.142,4.110477
5689.07,4.104272
5690.999,4.100904
5692.927,4.102044
5694.856,4.10252
5696.784,4.100048
5698.713,4.098053
5700.642,4.097508
5702.57,4.094474
5704.499,4.089765
5706.427,4.088393
5708.355,4.090155
5710.284,4.093724
5712.212,4.093805
5714.141,4.091234
5716.069,4.088372
5717.998,4.088359
5719.926,4.085262
5721.855,4.081324
5723.783,4.078185
5725.712,4.071225
5727.641,4.065078
5729.569,4.060276
5731.497,4.051742
5733.426,4.042034
5735.354,4.031
5737.283,4.022434
5739.211,4.012966
5741.14,4.005455
5743.068,3.99879
5744.997,3.990728
5746.925,3.986153
5748.854,3.978621
5750.782,3.972815
5752.711,3.968025
5754.639,3.965506
5756.568,3.964785
5758.496,3.966152
5760.425,3.969995
5762.354,3.973373
5764.282,3.975395
5766.21,3.976591
5768.139,3.972912
5770.067,3.973316
5771.996,3.975325
5773.924,3.975575
5775.853,3.977664
5777.781,3.979275
5779.71,3.978159
5781.638,3.975635
5783.567,3.973121
5785.495,3.971375
5787.424,3.966711
5789.353,3.963197
5791.281,3.962839
5793.209,3.963427
5795.138,3.961071
5797.066,3.960055
5798.995,3.960615
5800.923,3.962459
5802.852,3.964781
5804.78,3.968034
5806.709,3.97162
5808.637,3.972964
5810.566,3.975082
5812.494,3.981271
5814.423,3.989256
5816.352,3.993752
5818.28,3.996987
5820.208,3.998821
5822.137,4.001623
5824.065,4.002958
5825.994,4.004283
5827.922,4.005837
5829.851,4.006716
5831.779,4.006437
5833.708,4.006522
5835.636,4.005354
5837.565,3.998807
5839.493,3.995204
5841.422,3.990158
5843.35,3.987317
5845.279,3.984505
5847.207,3.979834
5849.136,3.976423
5851.064,3.97528
5852.993,3.971358
5854.921,3.96465
5856.85,3.964755
5858.778,3.969135
5860.707,3.972409
5862.635,3.973961
5864.563,3.971429
5866.492,3.97436
5868.421,3.981666
5870.349,3.986993
5872.278,3.993281
5874.206,4.004139
5876.135,4.01635
5878.063,4.02688
5879.992,4.03554
5881.92,4.04567
5883.849,4.052426
5885.777,4.054294
5887.706,4.055755
5889.634,4.054323
5891.563,4.052943
5893.491,4.052368
5895.42,4.054585
5897.348,4.052301
5899.277,4.051349
5901.205,4.051484
5903.134,4.049117
5905.063,4.047626
5906.991,4.041564
5908.919,4.038386
5910.848,4.051735
5912.776,4.073261
5914.705,4.104517
5916.633,4.149899
5918.562,4.206839
5920.49,4.280421
5922.419,4.368869
5924.347,4.468919
5926.276,4.576563
5928.204,4.688065
5930.133,4.801796
5932.061,4.917373
5933.99,5.038095
5935.918,5.159854
5937.847,5.274037
5939.775,5.384768
5941.704,5.493492
5943.632,5.599496
5945.561,5.699404
5947.489,5.792988
5949.418,5.883907
5951.346,5.969336
5953.274,6.048815
5955.203,6.120909
5957.132,6.187116
5959.06,6.254233
5960.989,6.321143
5962.917,6.382526
5964.846,6.43952
5966.774,6.496661
5968.703,6.546113
5970.631,6.596169
5972.56,6.642299
5974.488,6.685982
5976.417,6.725091
5978.345,6.764451
5980.273,6.796821
5982.202,6.83095
5984.131,6.864642
5986.059,6.893673
5987.988,6.92171
5989.916,6.947324
5991.845,6.966844
5993.773,6.98714
5995.702,7.005309
5997.63,7.025654
5999.559,7.042983
6001.487,7.056235
6003.416,7.066578
6005.344,7.082857
6007.272,7.098004
6009.201,7.114117
6011.13,7.129863
6013.058,7.142093
6014.986,7.153201
6016.915,7.165546
6018.844,7.181514
6020.772,7.195792
6022.701,7.200234
6024.629,7.212929
6026.558,7.222888
6028.486,7.229429
6030.415,7.234881
6032.343,7.241665
6034.271,7.246667
6036.2,7.251826
6038.129,7.256053
6040.057,7.259707
6041.985,7.260557
6043.914,7.263341
6045.843,7.260833
6047.771,7.265035
6049.7,7.267767
6051.628,7.26418
6053.557,7.260554
6055.485,7.266551
6057.414,7.265707
6059.342,7.263629
6061.271,7.260899
6063.199,7.262388
6065.128,7.260828
6067.056,7.261535
6068.984,7.260677
6070.913,7.257642
6072.842,7.25342
6074.77,7.254875
6076.698,7.255649
6078.627,7.24976
6080.556,7.244223
6082.484,7.245134
6084.413,7.241889
6086.341,7.243791
6088.27,7.243471
6090.198,7.242008
6092.126,7.243837
6094.055,7.244721
6095.983,7.244071
6097.912,7.248065
6099.841,7.252483
6101.769,7.25838
6103.697,7.265071
6105.626,7.273509
6107.555,7.282984
6109.483,7.292747
6111.412,7.301415
6113.34,7.307111
6115.269,7.315547
6117.197,7.328452
6119.125,7.342865
6121.054,7.359388
6122.982,7.372652
6124.911,7.38481
6126.84,7.395793
6128.768,7.417501
6130.696,7.439069
6132.625,7.454178
6134.554,7.476253
6136.482,7.501135
6138.41,7.523204
6140.339,7.548686
6142.268,7.572164
6144.196,7.600143
6146.125,7.628441
6148.053,7.658705
6149.981,7.692925
6151.91,7.729138
6153.839,7.764664
6155.767,7.800159
6157.695,7.837122
6159.624,7.873538
6161.553,7.914302
6163.481,7.957586
6165.409,7.997399
6167.338,8.034758
6169.267,8.079043
6171.195,8.123375
6173.124,8.160572
6175.052,8.198942
6176.98,8.228186
6178.909,8.26213
6180.837,8.299048
6182.766,8.331868
6184.694,8.360553
6186.623,8.390727
6188.552,8.417025
6190.48,8.443275
6192.408,8.467266
6194.337,8.488413
6196.266,8.50813
6198.194,8.526174
6200.123,8.535462
6202.051,8.548031
6203.979,8.558904
6205.908,8.568089
6207.836,8.578724
6209.765,8.585328
6211.693,8.592318
6213.622,8.600298
6215.551,8.611587
6217.479,8.626728
6219.407,8.639262
6221.336,8.6533
6223.265,8.666682
6225.193,8.675441
6227.121,8.686656
6229.05,8.697853
6230.979,8.704977
6232.907,8.712998
6234.835,8.722758
6236.764,8.732244
6238.692,8.73728
6240.621,8.747273
6242.549,8.760703
6244.478,8.77011
6246.406,8.779068
6248.335,8.797249
6250.264,8.817533
6252.192,8.831708
6254.12,8.84216
6256.049,8.857016
6257.978,8.877408
6259.906,8.895256
6261.834,8.910182
6263.763,8.925311
6265.691,8.936234
6267.62,8.957007
6269.548,8.9751
6271.477,8.987562
6273.405,8.997454
6275.334,9.00659
6277.263,9.021158
6279.191,9.036652
6281.119,9.045718
6283.048,9.057122
6284.977,9.062956
6286.905,9.073104
6288.833,9.07923
6290.762,9.083737
6292.69,9.092394
6294.619,9.1007
6296.547,9.106707
6298.476,9.117496
6300.404,9.124193
6302.333,9.133606
6304.262,9.138803
6306.19,9.143756
6308.118,9.151781
6310.047,9.163303
6311.976,9.17337
6313.904,9.184324
6315.832,9.195331
6317.761,9.211137
6319.689,9.223548
6321.618,9.240081
6323.546,9.254176
6325.475,9.264706
6327.403,9.276115
6329.332,9.291445
6331.26,9.301199
6333.189,9.316149
6335.117,9.330295
6337.046,9.340523
6338.975,9.352132
6340.903,9.363965
6342.831,9.372488
6344.76,9.383313
6346.688,9.393007
6348.617,9.402272
6350.545,9.409144
6352.474,9.417729
6354.402,9.424391
6356.331,9.430334
6358.259,9.43641
6360.188,9.443316
6362.116,9.451218
6364.045,9.453253
6365.974,9.453264
6367.902,9.46053
6369.83,9.465031
6371.759,9.474342
6373.688,9.484774
6375.616,9.491346
6377.544,9.497225
6379.473,9.509245
6381.401,9.516262
6383.33,9.523373
6385.258,9.532701
6387.187,9.538333
6389.115,9.542292
6391.044,9.552822
6392.973,9.561713
6394.901,9.568547
6396.829,9.576355
6398.758,9.582705
6400.687,9.589371
6402.615,9.59515
6404.543,9.598372
6406.472,9.603295
6408.4,9.601954
6410.329,9.605533
6412.257,9.609688
6414.186,9.60652
6416.114,9.605093
6418.043,9.610017
6419.971,9.60848
6421.9,9.602347
6423.828,9.600632
6425.757,9.601857
6427.686,9.604772
6429.614,9.606031
6431.542,9.603066
6433.471,9.606328
6435.399,9.607586
6437.328,9.606853
6439.256,9.601234
6441.185,9.606057
6443.113,9.610903
6445.042,9.610111
6446.97,9.610909
6448.898,9.610188
6450.827,9.604692
6452.756,9.601096
6454.685,9.600514
6456.613,9.605839
6458.541,9.60668
6460.47,9.60337
6462.398,9.604384
6464.327,9.602638
6466.255,9.600042
6468.184,9.60013
6470.112,9.597523
6472.041,9.600354
6473.969,9.59715
6475.897,9.595993
6477.826,9.596059
6479.755,9.594416
6481.684,9.592669
6483.612,9.591029
6485.54,9.586518
6487.469,9.585335
6489.397,9.58348
6491.326,9.578045
6493.254,9.573746
6495.183,9.570244
6497.111,9.563108
6499.04,9.558691
6500.968,9.554595
6502.896,9.549674
6504.825,9.53841
6506.754,9.525786
6508.682,9.512673
6510.61,9.501985
6512.539,9.489595
6514.468,9.48044
6516.396,9.468448
6518.325,9.455127
6520.253,9.443087
6522.182,9.435777
6524.11,9.422322
6526.039,9.407195
6527.967,9.395161
6529.896,9.377614
6531.824,9.363319
6533.753,9.349092
6535.681,9.326619
6537.609,9.311242
6539.538,9.293859
6541.467,9.274727
6543.396,9.257522
6545.324,9.240559
6547.252,9.225679
6549.181,9.213177
6551.109,9.191995
6553.038,9.169144
6554.966,9.152775
6556.895,9.136658
6558.823,9.117304
6560.752,9.090586
6562.68,9.063807
6564.608,9.043889
6566.537,9.014189
6568.466,8.989829
6570.394,8.967106
6572.323,8.941004
6574.251,8.913965
6576.18,8.886886
6578.108,8.862951
6580.037,8.842523
6581.965,8.820872
6583.894,8.804179
6585.822,8.787484
6587.751,8.770951
6589.679,8.757518
6591.607,8.745996
6593.536,8.740042
6595.465,8.72982
6597.393,8.712049
6599.321,8.693404
6601.25,8.680776
6603.179,8.66816
6605.107,8.651983
6607.036,8.642136
6608.964,8.6284
6610.893,8.617203
6612.821,8.604185
6614.75,8.586807
6616.678,8.573112
6618.606,8.558353
6620.535,8.541471
6622.464,8.52616
6624.392,8.506398
6626.32,8.489477
6628.249,8.475771
6630.178,8.457379
6632.106,8.437484
6634.035,8.419346
6635.963,8.394998
6637.892,8.371898
6639.82,8.352549
6641.749,8.330468
6643.677,8.301867
6645.605,8.276842
6647.534,8.257074
6649.463,8.235953
6651.391,8.205637
6653.319,8.184928
6655.248,8.162487
6657.177,8.137599
6659.105,8.112426
6661.034,8.09069
6662.962,8.066073
6664.891,8.039987
6666.819,8.013866
6668.748,7.987529
6670.676,7.961721
6672.604,7.934508
6674.533,7.910367
6676.462,7.885636
6678.39,7.859383
6680.318,7.835684
6682.247,7.813807
6684.176,7.793748
6686.104,7.775822
6688.032,7.75314
6689.961,7.732388
6691.89,7.71544
6693.818,7.700373
6695.747,7.685911
6697.675,7.668776
6699.604,7.656145
6701.532,7.653373
6703.46,7.644273
6705.389,7.633371
6707.317,7.629814
6709.246,7.622162
6711.175,7.614613
6713.103,7.613362
6715.031,7.611029
6716.96,7.60577
6718.889,7.605668
6720.817,7.607636
6722.746,7.607343
6724.674,7.608638
6726.603,7.607399
6728.531,7.603752
6730.459,7.602013
6732.388,7.596332
6734.316,7.591691
6736.245,7.586426
6738.174,7.586311
6740.102,7.582307
6742.03,7.577401
6743.959,7.566355
6745.888,7.561088
6747.816,7.563844
6749.745,7.568105
6751.673,7.563995
6753.602,7.555688
6755.53,7.549906
6757.458,7.547674
6759.387,7.550208
6761.315,7.545854
6763.244,7.536178
6765.173,7.533953
6767.101,7.530676
6769.029,7.528967
6770.958,7.524485
6772.887,7.517441
6774.815,7.514104
6776.743,7.504304
6778.672,7.49209
6780.601,7.478614
6782.529,7.466258
6784.458,7.457057
6786.386,7.44521
6788.314,7.42583
6790.243,7.412534
6792.171,7.400347
6794.1,7.37858
6796.028,7.359511
6797.957,7.345121
6799.886,7.3292
6801.814,7.30916
6803.742,7.291833
6805.671,7.280595
6807.6,7.261993
6809.528,7.246923
6811.457,7.230015
6813.385,7.215378
6815.313,7.205702
6817.242,7.199392
6819.17,7.183526
6821.099,7.169701
6823.027,7.158338
6824.956,7.152083
6826.885,7.144838
6828.813,7.135921
6830.741,7.124019
6832.67,7.118949
6834.599,7.112477
6836.527,7.099994
6838.455,7.092277
6840.384,7.081515
6842.313,7.06173
6844.241,7.044017
6846.169,7.037664
6848.098,7.02761
6850.026,7.012291
6851.955,6.993696
6853.884,6.975258
6855.812,6.959866
6857.74,6.949303
6859.669,6.941219
6861.598,6.933491
6863.526,6.918633
6865.454,6.906197
6867.383,6.901769
6869.312,6.891298
6871.24,6.884809
6873.168,6.882443
6875.097,6.87482
6877.025,6.868192
6878.954,6.851887
6880.882,6.8394
6882.811,6.835185
6884.739,6.824782
6886.668,6.809891
6888.597,6.789014
6890.525,6.764268
6892.453,6.745226
6894.382,6.728735
6896.311,6.710347
6898.239,6.68611
6900.167,6.66154
6902.096,6.638971
6904.024,6.626133
6905.953,6.616574
6907.881,6.606206
6909.81,6.597434
6911.738,6.58712
6913.667,6.573884
6915.596,6.565342
6917.524,6.56198
6919.452,6.547406
6921.381,6.538186
6923.31,6.528381
6925.238,6.519158
6927.166,6.508999
6929.095,6.495644
6931.023,6.484
6932.952,6.468888
6934.88,6.454566
6936.809,6.438304
6938.737,6.421338
6940.666,6.403188
6942.594,6.384217
6944.523,6.372579
6946.451,6.365011
6948.38,6.357093
6950.309,6.351174
6952.237,6.343932
6954.165,6.342763
6956.094,6.349843
6958.022,6.348967
6959.951,6.346513
6961.879,6.342235
6963.808,6.330166
6965.736,6.316581
6967.665,6.301317
6969.593,6.288218
6971.521,6.277696
6973.45,6.268251
6975.379,6.255967
6977.308,6.243851
6979.236,6.234607
6981.164,6.230475
6983.093,6.223851
6985.021,6.215888
6986.95,6.207968
6988.878,6.202639
6990.807,6.199046
6992.735,6.192765
6994.664,6.183885
6996.592,6.188296
6998.521,6.190649
7000.449,6.188739
7002.378,6.191604
7004.307,6.192989
7006.235,6.194376
7008.163,6.193553
7010.092,6.201187
7012.021,6.217026
7013.949,6.224964
7015.877,6.221817
7017.806,6.219545
7019.734,6.218142
7021.663,6.217144
7023.591,6.216718
7025.52,6.208094
7027.448,6.194275
7029.377,6.178374
7031.305,6.160815
7033.234,6.143264
7035.162,6.124497
7037.091,6.100999
7039.02,6.073433
7040.948,6.051127
7042.876,6.022846
7044.805,5.995358
7046.733,5.972249
7048.662,5.946715
7050.59,5.926171
7052.519,5.905163
7054.447,5.88341
7056.376,5.860315
7058.304,5.834787
7060.232,5.820714
7062.161,5.809469
7064.09,5.795161
7066.019,5.785439
7067.947,5.777604
7069.875,5.772389
7071.804,5.772041
7073.732,5.766894
7075.661,5.764015
7077.589,5.762871
7079.518,5.767136
7081.446,5.778355
7083.375,5.786667
7085.303,5.799755
7087.231,5.822014
7089.16,5.839748
7091.089,5.862508
7093.018,5.886146
7094.946,5.906167
7096.874,5.922447
7098.803,5.938326
7100.731,5.956503
7102.66,5.963847
7104.588,5.970535
7106.517,5.973438
7108.445,5.967157
7110.374,5.94961
7112.302,5.937051
7114.23,5.917558
7116.159,5.899271
7118.088,5.888713
7120.016,5.848143
7121.944,5.809611
7123.873,5.775954
7125.802,5.741956
7127.73,5.708124
7129.659,5.673545
7131.587,5.636488
7133.516,5.607872
7135.444,5.582829
7137.373,5.544534
7139.301,5.516494
7141.229,5.491795
7143.158,5.458036
7145.087,5.42828
7147.015,5.390305
7148.943,5.360339
7150.872,5.33234
7152.801,5.303031
7154.729,5.279606
7156.658,5.263848
7158.586,5.252776
7160.515,5.25909
7162.443,5.264615
7164.372,5.263735
7166.3,5.286865
7168.229,5.311223
7170.157,5.32931
7172.086,5.346483
7174.014,5.377152
7175.942,5.412608
7177.871,5.44713
7179.8,5.47225
7181.729,5.528345
7183.657,5.555948
7185.585,5.570274
7187.514,5.588513
7189.442,5.615192
7191.371,5.635608
7193.299,5.651047
7195.228,5.671017
7197.156,5.679005
7199.085,5.687004
7201.013,5.694503
7202.941,5.701829
7204.87,5.712197
7206.799,5.70714
7208.727,5.705025
7210.655,5.696083
7212.584,5.687655
7214.513,5.681562
7216.441,5.672307
7218.37,5.669607
7220.298,5.679341
7222.227,5.66654
7224.155,5.662761
7226.083,5.689744
7228.012,5.710204
7229.94,5.725207
7231.869,5.787072
7233.798,5.827461
7235.726,5.844141
7237.654,5.885608
7239.583,5.92925
7241.512,5.977631
7243.44,6.026403
7245.369,6.04224
7247.297,6.056524
7249.226,6.067257
7251.154,6.090363
7253.083,6.120239
7255.011,6.1257
7256.939,6.13302
7258.868,6.151734
7260.797,6.177396
7262.725,6.202559
7264.653,6.213181
7266.582,6.233307
7268.511,6.250217
7270.439,6.2713
7272.368,6.302197
7274.296,6.330898
7276.225,6.351241
7278.153,6.375968
7280.082,6.402015
7282.01,6.434589
7283.938,6.462005
7285.867,6.487706
7287.796,6.518453
7289.724,6.539652
7291.652,6.553997
7293.581,6.596551
7295.51,6.628022
7297.438,6.635601
7299.366,6.671903
7301.295,6.702698
7303.224,6.723648
7305.152,6.756839
7307.081,6.80745
7309.009,6.824613
7310.938,6.855013
7312.866,6.883974
7314.794,6.904638
7316.723,6.927448
7318.651,6.938014
7320.58,6.95589
7322.509,6.982064
7324.437,7.008769
7326.365,7.032403
7328.294,7.078743
7330.223,7.07597
7332.151,7.078653
7334.08,7.082673
7336.008,7.090134
7337.937,7.091317
7339.865,7.123701
7341.793,7.140248
7343.722,7.161378
7345.65,7.175044
7347.579,7.204409
7349.508,7.23934
7351.436,7.273416
7353.364,7.326098
7355.293,7.411021
7357.222,7.487514
7359.15,7.566334
7361.079,7.683431
7363.007,7.795938
7364.936,7.907893
7366.864,8.029928
7368.792,8.160589
7370.721,8.274326
7372.649,8.377151
7374.578,8.511318
7376.507,8.644099
7378.435,8.739149
7380.363,8.855052
7382.292,8.968224
7384.221,9.056269
7386.149,9.142623
7388.077,9.230522
7390.006,9.321992
7391.935,9.40064
7393.863,9.477776
7395.792,9.542283
7397.72,9.604503
7399.648,9.658154
7401.577,9.707269
7403.505,9.761645
7405.434,9.814135
7407.362,9.849697
7409.291,9.883259
7411.22,9.920298
7413.148,9.957297
7415.076,9.992213
7417.005,10.0253
7418.934,10.05453
7420.862,10.07887
7422.791,10.10136
7424.719,10.12722
7426.647,10.15018
7428.576,10.16867
7430.504,10.18835
7432.433,10.21013
7434.361,10.22692
7436.29,10.24216
7438.219,10.24842
7440.147,10.26162
7442.075,10.27341
7444.004,10.28533
7445.933,10.29836
7447.861,10.30884
7449.789,10.32103
7451.718,10.32767
7453.646,10.33641
7455.575,10.34044
7457.503,10.34151
7459.432,10.35195
7461.36,10.36491
7463.289,10.37192
7465.218,10.37851
7467.146,10.38518
7469.074,10.38804
7471.003,10.39284
7472.932,10.39068
7474.86,10.39506
7476.788,10.40246
7478.717,10.41169
7480.646,10.41791
7482.574,10.42367
7484.502,10.42931
7486.431,10.43599
7488.359,10.43263
7490.288,10.43702
7492.216,10.44011
7494.145,10.44213
7496.073,10.44727
7498.002,10.44981
7499.931,10.45241
7501.859,10.46024
7503.787,10.4618
7505.716,10.46421
7507.645,10.46219
7509.573,10.46185
7511.501,10.4642
7513.43,10.46489
7515.358,10.46704
7517.287,10.47402
7519.215,10.48027
7521.144,10.48948
7523.072,10.48941
7525.001,10.48904
7526.93,10.49165
7528.858,10.49122
7530.786,10.48979
7532.715,10.494
7534.644,10.49598
7536.572,10.49869
7538.5,10.50275
7540.429,10.50242
7542.357,10.50047
7544.286,10.5115
7546.214,10.51263
7548.143,10.51389
7550.071,10.51577
7552.0,10.50579
7553.928,10.50662
7555.857,10.51194
7557.785,10.51087
7559.714,10.50613
7561.643,10.50815
7563.571,10.50868
7565.499,10.50926
7567.428,10.50287
7569.356,10.50179
7571.285,10.50495
7573.213,10.5074
7575.142,10.51508
7577.07,10.51123
7578.999,10.50387
7580.927,10.49946
7582.855,10.50909
7584.784,10.51328
7586.713,10.51359
7588.642,10.50721
7590.57,10.5024
7592.498,10.50012
7594.427,10.49699
7596.355,10.49815
7598.284,10.50037
7600.212,10.49443
7602.141,10.48969
7604.069,10.48817
7605.998,10.48806
7607.926,10.48839
7609.854,10.48766
7611.783,10.48896
7613.712,10.48126
7615.641,10.47213
7617.569,10.4766
7619.497,10.48
7621.426,10.47208
7623.354,10.47292
7625.283,10.47777
7627.211,10.47665
7629.14,10.47255
7631.068,10.47123
7632.997,10.47467
7634.925,10.48043
7636.854,10.46724
7638.782,10.458
7640.711,10.46036
7642.639,10.46173
7644.568,10.4598
7646.496,10.45596
7648.425,10.4572
7650.354,10.46084
7652.282,10.4626
7654.21,10.4514
7656.139,10.44335
7658.067,10.4374
7659.996,10.44085
7661.924,10.44786
7663.853,10.44211
7665.781,10.43609
7667.71,10.43118
7669.638,10.4247
7671.566,10.42456
7673.495,10.42391
7675.424,10.42169
7677.353,10.41532
7679.281,10.41371
7681.209,10.41884
7683.138,10.41433
7685.066,10.40361
7686.995,10.3995
7688.923,10.39489
7690.852,10.39208
7692.78,10.39008
7694.709,10.39085
7696.637,10.3823
7698.565,10.37079
7700.494,10.37216
7702.423,10.37666
7704.352,10.3666
7706.28,10.35906
7708.208,10.35542
7710.137,10.35313
7712.065,10.35041
7713.994,10.34257
7715.922,10.34275
7717.851,10.3332
7719.779,10.32609
7721.708,10.32321
7723.636,10.3245
7725.564,10.31569
7727.493,10.31054
7729.422,10.30868
7731.35,10.30367
7733.279,10.29494
7735.207,10.28928
7737.136,10.28719
7739.064,10.28191
7740.993,10.2793
7742.921,10.27945
7744.85,10.27571
7746.778,10.26849
7748.707,10.26131
7750.635,10.25383
7752.563,10.24488
7754.492,10.24404
7756.421,10.24328
7758.349,10.23316
7760.277,10.22125
7762.206,10.22239
7764.135,10.22509
7766.063,10.22161
7767.992,10.21271
7769.92,10.19798
7771.849,10.19492
7773.777,10.18984
7775.706,10.17558
7777.634,10.16867
7779.563,10.17597
7781.491,10.17168
7783.42,10.16564
7785.348,10.15987
7787.276,10.15238
7789.205,10.14323
7791.134,10.13872
7793.063,10.13234
7794.991,10.12671
7796.919,10.11626
7798.848,10.10894
7800.776,10.10823
7802.705,10.09967
7804.633,10.08998
7806.562,10.08515
7808.49,10.08441
7810.419,10.07919
7812.347,10.068
7814.275,10.05918
7816.204,10.06048
7818.133,10.05967
7820.061,10.05041
7821.989,10.03462
7823.918,10.02137
7825.847,10.00696
7827.775,10.00262
7829.704,9.998102
7831.632,9.986127
7833.561,9.974072
7835.489,9.958716
7837.417,9.946083
7839.346,9.940342
7841.274,9.934778
7843.203,9.920021
7845.132,9.903166
7847.06,9.890856
7848.988,9.882113
7850.917,9.879187
7852.846,9.867496
7854.774,9.845055
7856.703,9.835402
7858.631,9.832298
7860.56,9.817483
7862.488,9.802882
7864.417,9.797343
7866.345,9.78713
7868.273,9.770666
7870.202,9.763398
7872.131,9.750245
7874.059,9.741934
7875.987,9.734947
7877.916,9.721264
7879.845,9.708605
7881.773,9.690571
7883.702,9.675338
7885.63,9.663118
7887.559,9.657816
7889.487,9.650718
7891.416,9.630797
7893.344,9.613258
7895.272,9.597525
7897.201,9.580695
7899.13,9.557177
7901.058,9.55689
7902.986,9.544003
7904.915,9.531785
7906.844,9.516625
7908.772,9.497663
7910.7,9.487748
7912.629,9.475461
7914.558,9.460972
7916.486,9.447025
7918.415,9.421711
7920.343,9.397102
7922.271,9.384127
7924.2,9.370288
7926.128,9.356324
7928.057,9.333357
7929.985,9.305215
7931.914,9.285095
7933.843,9.265881
7935.771,9.248469
7937.699,9.227822
7939.628,9.208136
7941.557,9.192496
7943.485,9.17099
7945.414,9.161699
7947.342,9.149751
7949.271,9.126065
7951.199,9.113004
7953.127,9.095904
7955.056,9.075521
7956.984,9.055843
7958.913,9.041078
7960.842,9.024731
7962.77,9.005086
7964.698,8.989124
7966.627,8.968029
7968.556,8.95281
7970.484,8.936306
7972.413,8.912444
7974.341,8.89142
7976.27,8.877446
7978.198,8.861527
7980.126,8.843551
7982.055,8.826667
7983.983,8.809869
7985.912,8.795962
7987.841,8.766324
7989.769,8.750691
7991.697,8.738328
7993.626,8.714563
7995.555,8.686237
7997.483,8.662607
7999.411,8.649758
8001.34,8.629665
8003.269,8.596644
8005.197,8.574772
8007.125,8.555629
8009.054,8.53477
8010.982,8.513514
8012.911,8.497621
8014.839,8.472914
8016.768,8.451932
8018.696,8.432651
8020.625,8.404305
8022.554,8.374841
8024.482,8.353129
8026.41,8.33224
8028.339,8.303695
8030.268,8.271577
8032.196,8.253769
8034.125,8.240301
8036.053,8.211143
8037.981,8.173365
8039.91,8.154274
8041.838,8.139043
8043.767,8.114499
8045.695,8.086447
8047.624,8.048459
8049.553,8.026117
8051.481,8.005428
8053.409,7.97432
8055.338,7.944956
8057.267,7.918641
8059.195,7.890612
8061.124,7.864901
8063.052,7.844666
8064.98,7.815288
8066.909,7.788022
8068.837,7.759497
8070.766,7.727026
8072.694,7.701622
8074.623,7.682552
8076.552,7.652168
8078.48,7.619877
8080.408,7.595976
8082.337,7.556608
8084.266,7.52818
8086.194,7.506567
8088.122,7.479846
8090.051,7.447487
8091.979,7.408699
8093.908,7.375991
8095.836,7.352099
8097.765,7.31886
8099.693,7.277433
8101.622,7.254635
8103.551,7.216706
8105.479,7.184983
8107.407,7.159771
8109.336,7.12816
8111.265,7.085312
8113.192,7.047045
8115.121,7.021132
8117.05,6.98984
8118.979,6.961842
8120.907,6.935169
8122.835,6.89936
8124.764,6.868242
8126.692,6.829183
8128.621,6.789976
8130.55,6.761781
8132.478,6.739831
8134.406,6.701904
8136.335,6.665319
8138.264,6.644608
8140.191,6.620777
8142.12,6.583534
8144.049,6.547477
8145.978,6.519938
8147.906,6.485426
8149.834,6.444674
8151.763,6.42039
8153.691,6.392851
8155.62,6.359331
8157.548,6.327207
8159.477,6.299624
8161.405,6.269463
8163.334,6.236639
8165.263,6.207216
8167.19,6.176597
8169.119,6.146018
8171.048,6.121842
8172.977,6.102854
8174.905,6.077505
8176.833,6.048881
8178.762,6.022007
8180.69,5.999136
8182.619,5.976327
8184.547,5.94337
8186.476,5.924377
8188.404,5.911396
8190.333,5.895082
8192.262,5.868204
8194.189,5.834611
8196.118,5.820255
8198.047,5.808911
8199.976,5.79119
8201.903,5.772388
8203.832,5.757357
8205.761,5.734692
8207.689,5.711011
8209.618,5.703033
8211.546,5.692774
8213.475,5.663895
8215.403,5.648168
8217.332,5.649092
8219.261,5.645096
8221.188,5.618401
8223.117,5.603026
8225.046,5.592895
8226.975,5.584564
8228.902,5.578821
8230.831,5.577259
8232.76,5.571238
8234.688,5.551281
8236.617,5.548609
8238.545,5.554927
8240.474,5.546266
8242.402,5.541268
8244.331,5.542509
8246.259,5.538946
8248.188,5.545831
8250.116,5.557547
8252.045,5.559023
8253.974,5.560807
8255.901,5.568198
8257.83,5.570333
8259.759,5.574238
8261.688,5.589749
8263.616,5.605632
8265.544,5.603328
8267.473,5.611826
8269.401,5.623343
8271.33,5.645308
8273.258,5.658116
8275.187,5.665738
8277.115,5.673395
8279.044,5.67189
8280.973,5.677712
8282.9,5.689947
8284.829,5.698959
8286.758,5.70492
8288.687,5.712121
8290.614,5.710985
8292.543,5.712183
8294.472,5.712618
8296.4,5.721556
8298.329,5.727055
8300.257,5.723074
8302.186,5.716097
8304.114,5.705262
8306.043,5.689937
8307.972,5.686277
8309.899,5.677543
8311.828,5.670933
8313.757,5.655177
8315.686,5.643833
8317.613,5.634358
8319.542,5.620331
8321.471,5.615271
8323.399,5.609319
8325.328,5.598069
8327.256,5.576729
8329.185,5.562871
8331.113,5.557861
8333.042,5.547507
8334.97,5.545772
8336.898,5.547928
8338.827,5.538637
8340.756,5.53164
8342.685,5.527361
8344.612,5.526371
8346.541,5.532781
8348.47,5.532159
8350.398,5.531968
8352.327,5.53748
8354.255,5.523091
8356.184,5.508293
8358.112,5.499754
8360.041,5.489972
8361.969,5.475458
8363.897,5.457769
8365.826,5.442578
8367.755,5.430188
8369.684,5.421514
8371.611,5.406717
8373.54,5.386889
8375.469,5.375546
8377.397,5.370625
8379.325,5.367556
8381.254,5.370739
8383.183,5.356233
8385.111,5.331613
8387.04,5.315698
8388.968,5.324794
8390.896,5.333653
8392.825,5.342172
8394.754,5.351589
8396.683,5.355079
8398.61,5.362515
8400.539,5.373477
8402.468,5.383948
8404.396,5.400421
8406.324,5.419952
8408.253,5.436514
8410.182,5.454213
8412.11,5.480496
8414.039,5.498682
8415.967,5.517755
8417.896,5.533278
8419.824,5.547567
8421.753,5.579867
8423.681,5.612637
8425.609,5.638052
8427.538,5.660725
8429.467,5.686851
8431.396,5.715434
8433.323,5.745281
8435.252,5.781277
8437.181,5.819611
8439.109,5.847301
8441.037,5.888974
8442.966,5.923921
8444.895,5.953435
8446.823,5.984861
8448.752,6.010617
8450.68,6.046329
8452.608,6.093447
8454.537,6.142299
8456.466,6.186177
8458.395,6.227421
8460.322,6.265844
8462.251,6.298423
8464.18,6.33447
8466.108,6.361958
8468.036,6.39892
8469.965,6.439618
8471.894,6.475222
8473.822,6.506706
8475.751,6.536022
8477.679,6.563474
8479.607,6.584888
8481.536,6.604641
8483.465,6.627928
8485.393,6.644248
8487.321,6.650625
8489.25,6.660439
8491.179,6.681276
8493.107,6.691396
8495.035,6.691846
8496.964,6.701301
8498.893,6.705827
8500.821,6.724107
8502.75,6.754962
8504.678,6.76878
8506.606,6.762371
8508.535,6.773977
8510.464,6.791225
8512.392,6.806434
8514.32,6.822893
8516.249,6.837681
8518.178,6.855449
8520.106,6.879418
8522.034,6.896309
8523.963,6.923811
8525.892,6.961134
8527.82,6.983987
8529.748,6.995479
8531.677,7.00649
8533.605,7.034157
8535.534,7.075481
8537.463,7.107589
8539.391,7.115402
8541.319,7.139706
8543.248,7.169744
8545.177,7.194564
8547.105,7.227768
8549.033,7.26107
8550.962,7.294499
8552.891,7.306501
8554.819,7.333304
8556.747,7.367831
8558.676,7.405402
8560.604,7.433013
8562.533,7.464005
8564.462,7.48075
8566.39,7.507842
8568.318,7.546634
8570.247,7.568447
8572.176,7.586693
8574.104,7.626094
8576.032,7.664509
8577.961,7.702521
8579.89,7.730073
8581.818,7.749502
8583.746,7.780561
8585.675,7.818395
8587.604,7.852253
8589.532,7.868452
8591.461,7.891952
8593.389,7.917799
8595.317,7.945018
8597.246,7.978904
8599.175,8.020233
8601.103,8.053897
8603.031,8.085025
8604.96,8.117191
8606.889,8.154149
8608.817,8.193583
8610.745,8.230472
8612.674,8.254088
8614.603,8.270903
8616.531,8.296841
8618.459,8.318927
8620.388,8.322999
8622.316,8.311997
8624.245,8.309513
8626.174,8.31389
8628.102,8.29977
8630.03,8.271802
8631.959,8.247882
8633.888,8.221811
8635.816,8.195157
8637.744,8.175726
8639.673,8.147274
8641.602,8.128721
8643.53,8.120567
8645.458,8.106219
8647.387,8.093884
8649.315,8.089664
8651.244,8.086185
8653.173,8.093558
8655.101,8.09093
8657.029,8.106448
8658.958,8.124769
8660.887,8.125356
8662.814,8.135056
8664.743,8.140457
8666.672,8.123232
8668.601,8.138117
8670.529,8.163383
8672.457,8.16285
8674.386,8.164536
8676.314,8.181886
8678.243,8.193569
8680.172,8.203103
8682.1,8.206466
8684.028,8.23112
8685.957,8.261565
8687.886,8.294468
8689.813,8.327838
8691.742,8.369435
8693.671,8.406667
8695.6,8.451616
8697.528,8.501944
8699.456,8.560903
8701.385,8.615689
8703.313,8.677032
8705.242,8.74508
8707.17,8.806059
8709.099,8.864956
8711.027,8.929148
8712.956,8.980556
8714.885,9.049131
8716.813,9.118222
8718.741,9.177625
8720.67,9.233429
8722.599,9.278897
8724.527,9.321245
8726.455,9.386327
8728.384,9.432117
8730.313,9.47946
8732.241,9.52343
8734.169,9.576044
8736.098,9.61115
8738.026,9.649966
8739.955,9.69582
8741.884,9.735344
8743.812,9.776327
8745.74,9.822575
8747.669,9.864832
8749.598,9.89316
8751.525,9.933619
8753.454,9.98492
8755.383,10.02367
8757.312,10.06229
8759.24,10.09835
8761.168,10.13899
8763.097,10.18116
8765.025,10.22151
8766.954,10.2582
8768.882,10.29147
8770.811,10.34286
8772.739,10.3907
8774.668,10.41782
8776.597,10.44661
8778.524,10.48723
8780.453,10.52471
8782.382,10.5679
8784.311,10.61109
8786.239,10.6515
8788.167,10.68756
8790.096,10.70775
8792.024,10.73948
8793.953,10.77817
8795.881,10.80519
8797.81,10.83087
8799.738,10.85115
8801.667,10.89021
8803.596,10.91503
8805.523,10.93619
8807.452,10.96369
8809.381,10.98106
8811.31,11.00897
8813.237,11.04179
8815.166,11.06612
8817.095,11.06297
8819.023,11.06293
8820.952,11.08107
8822.88,11.1033
8824.809,11.1144
8826.737,11.11683
8828.666,11.12815
8830.595,11.13819
8832.522,11.15451
8834.451,11.15367
8836.38,11.1516
8838.309,11.17026
8840.236,11.19243
8842.165,11.21598
8844.094,11.23425
8846.022,11.24162
8847.951,11.25403
8849.879,11.27007
8851.808,11.28728
8853.736,11.30323
8855.665,11.32983
8857.593,11.3482
8859.521,11.34248
8861.45,11.35795
8863.379,11.37607
8865.308,11.39561
8867.235,11.41503
8869.164,11.42506
8871.093,11.42903
8873.021,11.4304
8874.95,11.43337
8876.878,11.43586
8878.807,11.4432
8880.735,11.45759
8882.664,11.46345
8884.592,11.47536
8886.521,11.47198
8888.449,11.46653
8890.378,11.46851
8892.307,11.49385
8894.234,11.50182
8896.163,11.49982
8898.092,11.50886
8900.021,11.51973
8901.948,11.50998
8903.877,11.49611
8905.806,11.52647
8907.734,11.54632
8909.663,11.53915
8911.591,11.52178
8913.52,11.5316
8915.448,11.53203
8917.377,11.53688
8919.306,11.55665
8921.233,11.56542
8923.162,11.56486
8925.091,11.55532
8927.02,11.56107
8928.947,11.57146
8930.876,11.57989
8932.805,11.58993
8934.733,11.59713
8936.662,11.59022
8938.59,11.58726
8940.519,11.60964
8942.447,11.61893
8944.376,11.61168
8946.304,11.61343
8948.232,11.62457
8950.161,11.62491
8952.09,11.61938
8954.019,11.62758
8955.946,11.63581
8957.875,11.62972
8959.804,11.63077
8961.732,11.65041
8963.661,11.65112
8965.589,11.65142
8967.518,11.66234
8969.446,11.6696
8971.375,11.68521
8973.303,11.68754
8975.231,11.66978
8977.16,11.68072
8979.089,11.69289
8981.018,11.70246
8982.945,11.6897
8984.874,11.68257
8986.803,11.68508
8988.731,11.69908
8990.659,11.71112
8992.588,11.70905
8994.517,11.7088
8996.445,11.71842
8998.374,11.70962
9000.302,11.70696
9002.23,11.71237
9004.159,11.71717
9006.088,11.71528
9008.017,11.72395
9009.944,11.72039
9011.873,11.72886
9013.802,11.7449
9015.73,11.7519
9017.658,11.74856
9019.587,11.75429
9021.516,11.73439
9023.444,11.72826
9025.373,11.74254
9027.301,11.75538
9029.229,11.75631
9031.158,11.75326
9033.087,11.74765
9035.015,11.74715
9036.943,11.75981
9038.872,11.75387
9040.801,11.74581
9042.729,11.75657
9044.657,11.76488
9046.586,11.77271
9048.515,11.76946
9050.443,11.7585
9052.372,11.75284
9054.3,11.7649
9056.229,11.77891
9058.157,11.77304
9060.086,11.76381
9062.014,11.77879
9063.942,11.77554
9065.871,11.77975
9067.8,11.79372
9069.729,11.78997
9071.656,11.77666
9073.585,11.78011
9075.514,11.77882
9077.442,11.76806
9079.37,11.77523
9081.299,11.78698
9083.228,11.79017
9085.156,11.79353
9087.085,11.77362
9089.013,11.76819
9090.941,11.77314
9092.87,11.77729
9094.799,11.78277
9096.727,11.79739
9098.655,11.78765
9100.584,11.78182
9102.513,11.77659
9104.441,11.78093
9106.369,11.78718
9108.298,11.80258
9110.227,11.78058
9112.155,11.77223
9114.084,11.78159
9116.012,11.79053
9117.94,11.78941
9119.869,11.78845
9121.798,11.78729
9123.726,11.78821
9125.654,11.79446
9127.583,11.79283
9129.512,11.78282
9131.44,11.776
9133.368,11.77317
9135.297,11.76814
9137.226,11.77717
9139.154,11.78317
9141.082,11.76667
9143.011,11.78314
9144.939,11.78042
9146.868,11.77367
9148.797,11.77583
9150.725,11.77664
9152.653,11.76792
9154.582,11.77548
9156.511,11.75553
9158.439,11.74777
9160.367,11.76127
9162.296,11.76917
9164.225,11.77476
9166.153,11.76709
9168.081,11.75858
9170.01,11.7542
9171.938,11.74128
9173.867,11.75867
9175.796,11.76306
9177.724,11.76326
9179.652,11.76399
9181.581,11.7588
9183.51,11.75346
9185.438,11.73872
9187.366,11.73782
9189.295,11.7394
9191.224,11.72956
9193.152,11.72304
9195.08,11.70622
9197.009,11.70703
9198.938,11.7304
9200.866,11.72152
9202.795,11.72002
9204.723,11.72399
9206.651,11.69922
9208.58,11.68784
9210.509,11.69486
9212.437,11.69207
9214.365,11.68395
9216.294,11.68171
9218.223,11.67519
9220.151,11.68503
9222.079,11.69006
9224.008,11.68061
9225.937,11.67226
9227.865,11.68346
9229.793,11.67748
9231.722,11.67696
9233.65,11.67482
9235.579,11.66987
9237.508,11.673
9239.436,11.67734
9241.364,11.67117
9243.293,11.67003
9245.222,11.66104
9247.15,11.65371
9249.078,11.65028
9251.007,11.65236
9252.936,11.65948
9254.864,11.66676
9256.792,11.66915
9258.721,11.66123
9260.649,11.63628
9262.578,11.62178
9264.507,11.61476
9266.435,11.64079
9268.363,11.64664
9270.292,11.62628
9272.221,11.61833
9274.148,11.61092
9276.077,11.61442
9278.006,11.61705
9279.935,11.61108
9281.863,11.61542
9283.791,11.61243
9285.72,11.60976
9287.648,11.59856
9289.577,11.57818
9291.506,11.57401
9293.434,11.57261
9295.362,11.56994
9297.291,11.58486
9299.22,11.57448
9301.147,11.57764
9303.076,11.56829
9305.005,11.56264
9306.934,11.55799
9308.862,11.54551
9310.79,11.54527
9312.719,11.5417
9314.647,11.55
9316.576,11.54529
9318.504,11.54304
9320.433,11.53444
9322.361,11.52025
9324.29,11.52592
9326.219,11.52427
9328.146,11.51977
9330.075,11.51888
9332.004,11.52775
9333.933,11.51961
9335.861,11.49415
9337.789,11.4864
9339.718,11.49716
9341.646,11.48342
9343.575,11.46543
9345.503,11.48795
9347.432,11.48553
9349.36,11.47481
9351.289,11.47356
9353.218,11.48631
9355.146,11.48256
9357.074,11.4724
9359.003,11.46416
9360.932,11.46525
9362.859,11.46663
9364.788,11.46279
9366.717,11.45288
9368.646,11.45673
9370.574,11.46787
9372.502,11.46134
9374.431,11.45964
9376.359,11.47314
9378.288,11.47579
9380.217,11.46781
9382.145,11.47907
9384.073,11.47068
9386.002,11.46144
9387.931,11.45988
9389.858,11.45296
9391.787,11.44634
9393.716,11.45094
9395.645,11.4438
9397.573,11.44378
9399.501,11.45121
9401.43,11.44857
9403.358,11.44192
9405.287,11.43342
9407.215,11.43375
9409.144,11.4318
9411.072,11.44147
9413.001,11.44672
9414.93,11.46235
9416.857,11.4694
9418.786,11.46061
9420.715,11.45886
9422.644,11.45961
9424.571,11.44037
9426.5,11.44054
9428.429,11.44624
9430.357,11.43787
9432.286,11.44027
9434.214,11.43959
9436.143,11.44778
9438.071,11.44577
9440.0,11.43195
9441.929,11.42376
9443.856,11.43273
9445.785,11.42738
9447.714,11.4255
9449.643,11.43151
9451.57,11.40882
9453.499,11.39499
9455.428,11.41439
9457.356,11.41915
9459.285,11.4124
9461.213,11.38545
9463.142,11.38021
9465.07,11.39216
9466.999,11.3815
9468.927,11.37407
9470.855,11.36886
9472.784,11.37973
9474.713,11.40089
9476.642,11.39157
9478.569,11.37906
9480.498,11.37235
9482.427,11.36707
9484.355,11.37565
9486.284,11.36771
9488.212,11.3664
9490.141,11.36087
9492.069,11.36325
9493.998,11.37737
9495.926,11.38218
9497.854,11.36619
9499.783,11.35734
9501.712,11.36704
9503.641,11.35752
9505.568,11.33483
9507.497,11.35118
9509.426,11.34267
9511.354,11.33748
9513.282,11.36456
9515.211,11.36341
9517.14,11.34651
9519.068,11.33371
9520.997,11.32794
9522.925,11.3282
9524.854,11.3358
9526.782,11.35689
9528.711,11.34548
9530.64,11.33345
9532.567,11.31918
9534.496,11.31787
9536.425,11.34413
9538.354,11.34638
9540.281,11.33902
9542.21,11.32874
9544.139,11.32097
9546.067,11.3044
9547.996,11.32288
9549.924,11.33857
9551.853,11.31989
9553.781,11.31268
9555.71,11.32905
9557.638,11.33864
9559.566,11.34769
9561.495,11.33773
9563.424,11.33296
9565.353,11.33261
9567.28,11.34285
9569.209,11.35064
9571.138,11.3456
9573.066,11.3412
9574.995,11.34879
9576.923,11.34105
9578.852,11.35514
9580.78,11.3467
9582.709,11.33452
9584.637,11.34315
9586.565,11.36104
9588.494,11.36056
9590.423,11.35352
9592.352,11.35139
9594.279,11.34381
9596.208,11.34769
9598.137,11.36382
9600.065,11.36741
9601.993,11.36317
9603.922,11.36904
9605.851,11.37029
9607.779,11.36508
9609.708,11.36613
9611.636,11.36018
9613.564,11.36304
9615.493,11.3599
9617.422,11.35962
9619.351,11.35514
9621.278,11.35242
9623.207,11.35955
9625.136,11.37963
9627.064,11.38454
9628.992,11.37107
9630.921,11.37232
9632.85,11.37999
9634.778,11.37156
9636.707,11.33285
9638.635,11.31252
9640.563,11.32395
9642.492,11.33436
9644.421,11.31452
9646.349,11.31825
9648.277,11.32355
9650.206,11.33918
9652.135,11.32475
9654.063,11.30604
9655.991,11.3253
9657.92,11.33285
9659.849,11.3258
9661.777,11.31562
9663.706,11.32432
9665.634,11.32746
9667.563,11.3294
9669.491,11.32125
9671.42,11.32615
9673.348,11.31568
9675.276,11.31866
9677.205,11.31279
9679.134,11.32603
9681.063,11.31897
9682.99,11.30313
9684.919,11.30587
9686.848,11.30374
9688.776,11.2967
9690.704,11.30076
9692.633,11.30779
9694.562,11.32329
9696.49,11.34084
9698.419,11.33015
9700.347,11.3031
9702.275,11.30908
9704.204,11.30416
9706.133,11.28776
9708.062,11.27839
9709.989,11.2839
9711.918,11.28239
9713.847,11.28898
9715.775,11.28168
9717.703,11.27327
9719.632,11.28374
9721.561,11.27498
9723.489,11.24771
9725.418,11.2598
9727.346,11.26365
9729.274,11.26999
9731.203,11.2777
9733.132,11.26608
9735.06,11.27223
9736.988,11.28796
9738.917,11.26095
9740.846,11.2417
9742.774,11.23926
9744.702,11.24503
9746.631,11.24028
9748.56,11.23566
9750.488,11.23785
9752.416,11.2428
9754.345,11.23357
9756.273,11.23722
9758.202,11.24233
9760.131,11.23552
9762.059,11.22183
9763.987,11.21589
9765.916,11.21572
9767.845,11.2116
9769.773,11.20718
9771.701,11.2293
9773.63,11.22497
9775.559,11.21007
9777.487,11.21084
9779.415,11.19506
9781.344,11.18941
9783.272,11.18861
9785.201,11.17606
9787.13,11.16292
9789.058,11.16895
9790.986,11.18007
9792.915,11.18314
9794.844,11.16413
9796.771,11.15461
9798.7,11.16179
9800.629,11.15434
9802.558,11.15653
9804.486,11.16016
9806.414,11.15848
9808.343,11.16883
9810.271,11.17763
9812.2,11.18124
9814.129,11.16253
9816.057,11.16438
9817.985,11.16921
9819.914,11.16539
9821.843,11.19263
9823.771,11.21618
9825.699,11.20762
9827.628,11.19334
9829.557,11.19636
9831.485,11.20458
9833.413,11.22236
9835.342,11.21671
9837.271,11.2182
9839.199,11.2352
9841.127,11.24761
9843.056,11.26751
9844.984,11.26512
9846.913,11.26251
9848.842,11.28028
9850.77,11.2914
9852.698,11.29913
9854.627,11.31211
9856.556,11.31796
9858.484,11.31463
9860.412,11.32245
9862.341,11.33627
9864.27,11.33797
9866.198,11.35491
9868.126,11.36626
9870.055,11.38172
9871.983,11.37598
9873.912,11.36705
9875.841,11.38549
9877.769,11.4133
9879.697,11.41887
9881.626,11.40355
9883.555,11.39612
9885.482,11.41566
9887.411,11.44806
9889.34,11.47183
9891.269,11.49292
9893.197,11.49068
9895.125,11.47246
9897.054,11.49249
9898.982,11.51617
9900.911,11.51661
9902.84,11.53045
9904.768,11.5348
9906.696,11.53325
9908.625,11.54825
9910.554,11.55313
9912.481,11.55249
9914.41,11.55707
9916.339,11.5696
9918.268,11.56219
9920.196,11.58525
9922.124,11.59481
9924.053,11.58975
9925.981,11.59905
9927.91,11.6319
9929.838,11.61869
9931.767,11.60238
9933.695,11.64017
9935.624,11.67601
9937.553,11.65892
9939.48,11.65147
9941.409,11.66273
9943.338,11.66345
9945.267,11.64411
9947.195,11.64146
9949.123,11.65445
9951.052,11.6668
9952.98,11.66999
9954.909,11.66783
9956.837,11.68297
9958.766,11.7031
9960.694,11.7152
9962.623,11.7106
9964.552,11.72392
9966.479,11.71676
9968.408,11.71336
9970.337,11.72685
9972.266,11.72687
9974.193,11.72919
9976.122,11.71029
9978.051,11.71623
9979.979,11.72571
9981.908,11.72957
9983.836,11.74663
9985.765,11.78474
9987.693,11.77769
9989.622,11.73975
9991.551,11.73746
9993.479,11.75752
9995.407,11.74941
9997.336,11.7529
9999.265,11.74518
10001.19,11.7523
10003.12,11.76397
10005.05,11.76713
10006.98,11.75823
10008.91,11.75816
10010.83,11.78402
10012.76,11.79756
10014.69,11.78055
10016.62,11.80657
10018.55,11.83313
10020.48,11.83247
10022.41,11.83333
10024.33,11.82809
10026.26,11.82094
10028.19,11.82688
10030.12,11.84263
10032.05,11.85054
10033.98,11.85638
10035.91,11.88945
10037.83,11.92343
10039.76,11.92512
10041.69,11.91665
10043.62,11.93343
10045.55,11.92568
10047.48,11.92562
10049.41,11.94536
10051.33,11.95592
10053.26,11.95043
10055.19,11.95981
10057.12,11.97
10059.05,11.96561
10060.98,11.95114
10062.9,11.98105
10064.83,12.024
10066.76,12.04377
10068.69,12.03345
10070.62,12.03519
10072.55,11.99836
10074.48,11.97453
10076.4,11.9957
10078.33,12.00929
10080.26,12.02558
10082.19,12.04711
10084.12,12.04903
10086.05,12.02699
10087.98,12.05031
10089.9,12.07877
10091.83,12.07713
10093.76,12.07333
10095.69,12.0837
10097.62,12.08638
10099.55,12.0818
10101.47,12.07377
10103.4,12.08291
10105.33,12.09349
10107.26,12.07101
10109.19,12.05011
10111.12,12.05359
10113.05,12.07064
10114.97,12.09878
10116.9,12.10713
10118.83,12.09272
10120.76,12.11862
10122.69,12.13056
10124.62,12.15297
10126.54,12.14034
10128.47,12.12739
10130.4,12.13647
10132.33,12.13995
10134.26,12.1447
10136.19,12.17813
10138.12,12.1707
10140.04,12.13803
10141.97,12.15072
10143.9,12.16587
10145.83,12.18803
10147.76,12.18459
10149.69,12.16851
10151.62,12.18735
10153.54,12.21661
10155.47,12.21027
10157.4,12.20011
10159.33,12.21239
10161.26,12.18325
10163.19,12.18394
10165.12,12.20038
10167.04,12.20817
10168.97,12.21799
10170.9,12.24233
10172.83,12.24388
10174.76,12.23405
10176.69,12.2168
10178.61,12.24067
10180.54,12.2266
10182.47,12.22511
10184.4,12.23096
10186.33,12.23708
10188.26,12.22632
10190.19,12.22263
10192.11,12.23372
10194.04,12.21202
10195.97,12.22205
10197.9,12.24989
10199.83,12.23125
10201.76,12.23779
10203.69,12.24878
10205.61,12.25193
10207.54,12.24707
10209.47,12.24406
10211.4,12.2635
10213.33,12.27229
10215.26,12.27898
10217.18,12.26254
10219.11,12.27391
10221.04,12.2785
10222.97,12.2746
10224.9,12.2885
10226.83,12.3012
10228.76,12.2943
10230.68,12.29409
10232.61,12.29443
10234.54,12.26736
10236.47,12.27042
10238.4,12.28766
10240.33,12.26968
10242.25,12.27218
10244.18,12.30075
10246.11,12.29116
10248.04,12.30961
10249.97,12.30572
10251.9,12.31315
10253.83,12.30387
10255.75,12.3122
10257.68,12.32472
10259.61,12.32779
10261.54,12.31804
10263.47,12.29888
10265.4,12.31373
10267.33,12.30282
10269.25,12.29525
10271.18,12.30958
10273.11,12.33699
10275.04,12.32065
10276.97,12.28255
10278.9,12.30945
10280.83,12.30258
10282.75,12.28617
10284.68,12.27554
10286.61,12.2987
10288.54,12.32655
10290.47,12.34681
10292.4,12.33484
10294.32,12.32306
10296.25,12.31179
10298.18,12.28775
10300.11,12.29631
10302.04,12.33162
10303.97,12.34342
10305.9,12.31213
10307.82,12.27039
10309.75,12.27657
10311.68,12.29015
10313.61,12.30419
10315.54,12.27605
10317.47,12.2489
10319.4,12.27257
10321.32,12.35002
10323.25,12.38205
10325.18,12.34136
10327.11,12.33309
10329.04,12.31985
10330.97,12.33914
10332.89,12.32432
10334.82,12.27377
10336.75,12.28922
10338.68,12.30375
10340.61,12.29213
10342.54,12.28843
10344.47,12.3029
10346.39,12.30883
10348.32,12.31432
10350.25,12.30291
10352.18,12.32122
10354.11,12.30147
10356.04,12.2846
10357.96,12.25123
10359.89,12.25395
10361.82,12.29183
10363.75,12.29728
10365.68,12.28291
10367.61,12.28666
10369.54,12.27077
10371.46,12.28976
10373.39,12.2967
10375.32,12.25479
10377.25,12.21264
10379.18,12.21992
10381.11,12.25257
10383.04,12.26412
10384.96,12.25422
10386.89,12.25432
10388.82,12.28233
10390.75,12.29377
10392.68,12.26946
10394.61,12.25687
10396.54,12.25078
10398.46,12.22465
10400.39,12.22321
10402.32,12.23622
10404.25,12.26935
10406.18,12.26117
10408.11,12.23866
10410.03,12.25105
10411.96,12.24391
10413.89,12.247
10415.82,12.24387
10417.75,12.22108
10419.68,12.23286
10421.61,12.26516
10423.53,12.25884
10425.46,12.21156
10427.39,12.17589
10429.32,12.18249
10431.25,12.17969
10433.18,12.18136
10435.1,12.17673
10437.03,12.16424
10438.96,12.1785
10440.89,12.20825
10442.82,12.20367
10444.75,12.19361
10446.68,12.18279
10448.6,12.15879
10450.53,12.14498
10452.46,12.18572
10454.39,12.19388
10456.32,12.18858
10458.25,12.22023
10460.18,12.20807
10462.1,12.16717
10464.03,12.16042
10465.96,12.15556
10467.89,12.13477
10469.82,12.13329
10471.75,12.16046
10473.67,12.15685
10475.6,12.13465
10477.53,12.11452
10479.46,12.13676
10481.39,12.09456
10483.32,12.0764
10485.25,12.10454
10487.17,12.09572
10489.1,12.08143
10491.03,12.0779
10492.96,12.10266
10494.89,12.08286
10496.82,12.04701
10498.75,12.04447
10500.67,12.05257
10502.6,12.03659
10504.53,12.01086
10506.46,12.03438
10508.39,12.01526
10510.32,11.99912
10512.25,11.99981
10514.17,11.99827
10516.1,11.99561
10518.03,12.0025
10519.96,12.00276
10521.89,12.01316
10523.82,11.95664
10525.74,11.91941
10527.67,11.906
10529.6,11.92222
10531.53,11.91156
10533.46,11.92098
10535.39,11.9211
10537.32,11.86249
10539.24,11.85981
10541.17,11.88033
10543.1,11.91067
10545.03,11.90757
10546.96,11.88859
10548.89,11.86435
10550.81,11.82731
10552.74,11.81314
10554.67,11.8226
10556.6,11.79975
10558.53,11.79801
10560.46,11.78533
10562.39,11.80256
10564.31,11.78173
10566.24,11.73685
10568.17,11.7273
10570.1,11.71414
10572.03,11.72545
10573.96,11.7183
10575.89,11.67478
10577.81,11.69963
10579.74,11.70876
10581.67,11.65798
10583.6,11.5861
10585.53,11.58895
10587.46,11.61427
10589.38,11.584
10591.31,11.5346
10593.24,11.55963
10595.17,11.6137
10597.1,11.61126
10599.03,11.56949
10600.96,11.52624
10602.88,11.50541
10604.81,11.48761
10606.74,11.46119
10608.67,11.44189
10610.6,11.45599
10612.53,11.50705
10614.46,11.44495
10616.38,11.39093
10618.31,11.39721
10620.24,11.40501
10622.17,11.41173
10624.1,11.40328
10626.03,11.36879
10627.96,11.36131
10629.88,11.32574
10631.81,11.32555
10633.74,11.3412
10635.67,11.32395
10637.6,11.2924
10639.53,11.28809
10641.45,11.30867
10643.38,11.27316
10645.31,11.27069
10647.24,11.26262
10649.17,11.24438
10651.1,11.21288
10653.03,11.18428
10654.95,11.18503
10656.88,11.21526
10658.81,11.20153
10660.74,11.15845
10662.67,11.15253
10664.6,11.172
10666.52,11.16726
10668.45,11.15958
10670.38,11.16495
10672.31,11.18122
10674.24,11.14707
10676.17,11.13177
10678.1,11.14029
10680.02,11.12603
10681.95,11.13815
10683.88,11.12061
10685.81,11.05541
10687.74,11.0397
10689.67,11.1117
10691.59,11.10417
10693.52,11.07847
10695.45,11.08358
10697.38,11.06727
10699.31,11.07426
10701.24,11.06933
10703.17,11.09859
10705.09,11.10039
10707.02,11.09247
10708.95,11.08578
10710.88,11.0947
10712.81,11.0766
10714.74,11.08757
10716.67,11.07352
10718.59,11.05567
10720.52,11.04042
10722.45,11.07703
10724.38,11.08868
10726.31,11.03097
10728.24,11.00562
10730.17,11.03646
10732.09,11.07242
10734.02,11.07811
10735.95,11.02649
10737.88,11.00061
10739.81,11.0388
10741.74,11.09458
10743.67,11.04427
10745.59,10.98931
10747.52,11.03372
10749.45,11.09283
10751.38,11.07249
10753.31,11.06356
10755.24,11.05886
10757.16,11.03793
10759.09,11.00806
10761.02,11.06371
10762.95,11.10116
10764.88,11.12631
10766.81,11.09815
10768.74,11.05126
10770.66,11.03377
10772.59,11.04864
10774.52,11.04462
10776.45,11.0672
10778.38,11.06087
10780.31,11.05427
10782.23,11.04541
10784.16,11.09367
10786.09,11.09454
10788.02,11.08907
10789.95,11.10303
10791.88,11.07172
10793.81,11.03855
10795.73,11.05309
10797.66,11.05127
10799.59,11.05541
10801.52,11.08923
10803.45,11.05884
10805.38,11.03234
10807.3,11.04932
10809.23,11.01163
10811.16,11.00361
10813.09,11.01866
10815.02,11.00435
10816.95,10.95922
10818.88,10.92313
10820.8,10.94844
10822.73,10.97678
10824.66,10.95077
10826.59,10.96878
10828.52,10.97418
10830.45,10.98607
10832.38,10.96813
10834.3,10.9827
10836.23,11.02385
10838.16,11.03122
10840.09,10.99821
10842.02,10.97048
10843.95,10.94959
10845.88,10.99253
10847.8,10.99327
10849.73,10.92916
10851.66,10.89037
10853.59,10.90506
10855.52,10.89229
10857.45,10.87909
10859.38,10.88986
10861.3,10.91269
10863.23,10.88813
10865.16,10.85106
10867.09,10.88178
10869.02,10.93925
10870.95,10.93366
10872.87,10.89973
10874.8,10.85313
10876.73,10.8476
10878.66,10.90549
10880.59,10.92068
10882.52,10.8901
10884.45,10.86731
10886.37,10.90545
10888.3,10.88965
10890.23,10.82414
10892.16,10.86248
10894.09,10.93131
10896.02,10.90548
10897.94,10.88641
10899.87,10.87763
10901.8,10.87957
10903.73,10.84777
10905.66,10.79602
10907.59,10.80932
10909.52,10.83159
10911.44,10.84503
10913.37,10.84935
10915.3,10.82748
10917.23,10.80896
10919.16,10.84337
10921.09,10.85485
10923.01,10.81132
10924.94,10.80245
10926.87,10.81706
10928.8,10.80903
10930.73,10.79252
10932.66,10.78802
10934.59,10.81742
10936.51,10.80733
10938.44,10.80096
10940.37,10.78806
10942.3,10.75437
10944.23,10.74955
10946.16,10.80897
10948.09,10.8069
10950.01,10.7819
10951.94,10.74266
10953.87,10.7564
10955.8,10.80083
10957.73,10.78947
10959.66,10.80231
10961.58,10.76895
10963.51,10.75807
10965.44,10.79371
10967.37,10.82447
10969.3,10.80824
10971.23,10.75404
10973.16,10.79371
10975.08,10.78941
10977.01,10.76934
10978.94,10.82624
10980.87,10.83657
10982.8,10.84438
10984.73,10.86901
10986.66,10.89349
10988.58,10.94441
10990.51,10.92378
10992.44,10.94849
10994.37,10.96171
10996.3,10.95717
10998.23,10.93825
11000.16,10.97022
11002.08,11.00953
11004.01,10.99192
11005.94,10.98215
11007.87,11.05792
11009.8,11.07505
11011.73,11.03298
11013.65,11.02828
11015.58,11.11831
11017.51,11.15697
11019.44,11.14627
11021.37,11.20198
11023.3,11.24349
11025.23,11.26503
11027.15,11.26314
11029.08,11.19584
11031.01,11.22068
11032.94,11.26731
11034.87,11.23613
11036.8,11.2813
11038.72,11.36332
11040.65,11.34421
11042.58,11.36213
11044.51,11.41809
11046.44,11.39812
11048.37,11.38809
11050.3,11.37203
11052.22,11.42435
11054.15,11.44681
11056.08,11.4594
11058.01,11.44829
11059.94,11.41836
11061.87,11.48583
11063.79,11.48256
11065.72,11.47388
11067.65,11.49975
11069.58,11.50383
11071.51,11.47494
11073.44,11.58909
11075.37,11.65404
11077.29,11.68356
11079.22,11.7112
11081.15,11.66966
11083.08,11.66737
11085.01,11.66322
11086.94,11.63385
11088.87,11.68284
11090.79,11.75477
11092.72,11.72793
11094.65,11.70374
11096.58,11.75716
11098.51,11.73744
11100.44,11.69141
11102.37,11.72886
11104.29,11.7911
11106.22,11.84856
11108.15,11.82854
11110.08,11.76213
11112.01,11.75346
11113.94,11.79667
11115.87,11.81962
11117.79,11.88734
11119.72,11.92856
11121.65,11.96604
11123.58,11.95387
11125.51,11.88971
11127.44,11.85119
11129.36,11.89281
11131.29,11.95606
11133.22,12.01368
11135.15,12.04107
11137.08,12.0599
11139.01,12.03517
11140.94,12.06274
11142.86,12.12477
11144.79,12.11413
11146.72,12.08072
11148.65,12.06899
11150.58,12.06687
11152.51,12.10109
11154.43,12.11562
11156.36,12.07672
11158.29,12.12543
11160.22,12.10711
11162.15,12.12959
11164.08,12.09656
11166.01,12.07252
11167.93,12.13163
11169.86,12.21578
11171.79,12.27317
11173.72,12.23518
11175.65,12.18268
11177.58,12.21434
11179.5,12.21379
11181.43,12.1829
11183.36,12.1606
11185.29,12.21374
11187.22,12.24947
11189.15,12.27322
11191.08,12.27716
11193.0,12.26232
11194.93,12.23564
11196.86,12.2523
11198.79,12.27845
11200.72,12.28998
11202.65,12.30133
11204.58,12.31522
11206.5,12.31868
11208.43,12.35968
11210.36,12.34138
11212.29,12.32969
11214.22,12.31158
11216.15,12.27513
11218.08,12.32771
11220.0,12.34645
11221.93,12.38631
11223.86,12.36964
11225.79,12.35603
11227.72,12.32505
11229.65,12.32344
11231.58,12.39548
11233.5,12.41061
11235.43,12.37676
11237.36,12.37575
11239.29,12.37665
11241.22,12.35033
11243.15,12.35056
11245.07,12.3072
11247.0,12.35736
11248.93,12.34668
11250.86,12.3086
11252.79,12.4071
11254.72,12.38792
11256.65,12.3372
11258.57,12.37503
11260.5,12.39397
11262.43,12.42511
11264.36,12.4136
11266.29,12.38297
11268.22,12.42959
11270.14,12.44238
11272.07,12.45392
11274.0,12.47028
11275.93,12.42582
11277.86,12.40169
11279.79,12.34469
11281.72,12.33652
11283.64,12.41009
11285.57,12.4665
11287.5,12.37883
11289.43,12.33571
11291.36,12.367
11293.29,12.43223
11295.21,12.52852
11297.14,12.44398
11299.07,12.36857
11301.0,12.39015
11302.93,12.40503
11304.86,12.45521
11306.79,12.47477
11308.71,12.52847
11310.64,12.55419
11312.57,12.52152
11314.5,12.46851
11316.43,12.47883
11318.36,12.4839
11320.29,12.44904
11322.21,12.42485
11324.14,12.46222
11326.07,12.47362
11328.0,12.58011
11329.93,12.64131
11331.86,12.5954
11333.79,12.55363
11335.71,12.57208
11337.64,12.49576
11339.57,12.4672
11341.5,12.55511
11343.43,12.57508
11345.36,12.55159
11347.28,12.56632
11349.21,12.50466
11351.14,12.51586
11353.07,12.43628
11355.0,12.46778
11356.93,12.52503
11358.86,12.52475
11360.78,12.54255
11362.71,12.5573
11364.64,12.61313
11366.57,12.65105
11368.5,12.62898
11370.43,12.58646
11372.36,12.58161
11374.28,12.54553
11376.21,12.55093
11378.14,12.65243
11380.07,12.66663
11382.0,12.57557
11383.93,12.54898
11385.85,12.61127
11387.78,12.58224
11389.71,12.56631
11391.64,12.59659
11393.57,12.62152
11395.5,12.57475
11397.43,12.54957
11399.35,12.57554
11401.28,12.67166
11403.21,12.61268
11405.14,12.61093
11407.07,12.686
11409.0,12.69314
11410.92,12.71399
11412.85,12.78722
11414.78,12.70735
11416.71,12.67793
11418.64,12.7357
11420.57,12.68826
11422.5,12.6529
11424.42,12.76678
11426.35,12.7439
11428.28,12.70878
11430.21,12.73687
11432.14,12.76106
11434.07,12.69322
11436.0,12.62533
11437.92,12.66494
11439.85,12.7358
11441.78,12.72103
11443.71,12.67669
11445.64,12.70341
11447.57,12.74916
11449.5,12.70457
11451.42,12.73532
11453.35,12.75789
11455.28,12.71859
11457.21,12.74381
11459.14,12.74015
11461.07,12.69438
11462.99,12.6507
11464.92,12.68549
11466.85,12.73087
11468.78,12.76312
11470.71,12.78942
11472.64,12.77802
11474.57,12.79693
11476.49,12.76792
11478.42,12.69936
11480.35,12.71698
11482.28,12.75342
11484.21,12.83866
11486.14,12.77675
11488.07,12.73813
11489.99,12.80362
11491.92,12.80858
11493.85,12.70649
11495.78,12.66852
11497.71,12.69371
11499.64,12.7355
11501.56,12.7497
11503.49,12.73147
11505.42,12.69027
11507.35,12.73953
11509.28,12.81298
11511.21,12.76097
11513.14,12.78097
11515.06,12.76685
11516.99,12.76621
11518.92,12.82717
11520.85,12.84291
11522.78,12.90509
11524.71,12.88344
11526.63,12.82947
11528.56,12.85533
11530.49,12.87014
11532.42,12.87498
11534.35,12.85355
11536.28,12.91662
11538.21,12.87279
11540.13,12.76731
11542.06,12.75217
11543.99,12.83518
11545.92,12.90841
11547.85,12.9144
11549.78,12.85485
11551.71,12.82626
11553.63,12.86661
11555.56,12.86645
11557.49,12.84077
11559.42,12.87684
11561.35,12.9552
11563.28,12.91315
11565.21,12.87807
11567.13,12.98023
11569.06,12.94856
11570.99,12.84479
11572.92,12.75456
11574.85,12.74812
11576.78,12.80557
11578.7,12.95328
11580.63,12.9197
11582.56,12.84948
11584.49,12.80057
11586.42,12.7846
11588.35,12.8634
11590.28,12.92862
11592.2,12.92675
11594.13,12.88377
11596.06,12.90729
11597.99,12.98461
11599.92,12.92472
11601.85,12.83001
11603.78,12.84799
11605.7,12.88432
11607.63,12.90838
11609.56,12.89434
11611.49,12.88586
11613.42,12.84185
11615.35,12.89767
11617.27,12.91097
11619.2,12.82388
11621.13,12.86597
11623.06,12.92382
11624.99,12.90076
11626.92,12.90576
11628.85,12.86021
11630.77,12.86547
11632.7,12.92931
11634.63,12.98138
11636.56,12.94798
11638.49,12.90648
11640.42,12.9283
11642.34,12.91266
11644.27,12.95127
11646.2,12.91651
11648.13,12.92205
11650.06,12.8652
11651.99,12.85663
11653.92,12.83092
11655.84,12.8068
11657.77,12.92796
11659.7,12.86238
11661.63,12.85254
11663.56,12.96012
11665.49,12.9815
11667.42,12.93772
11669.34,12.95886
11671.27,12.98556
11673.2,13.01428
11675.13,12.87617
11677.06,12.90837
11678.99,13.04191
11680.92,13.03375
11682.84,12.94061
11684.77,12.95423
11686.7,12.99954
11688.63,12.99721
11690.56,13.0272
11692.49,13.00642
11694.41,12.93169
11696.34,12.85726
11698.27,12.82522
11700.2,12.88805
11702.13,12.88711
11704.06,12.862
11705.99,12.8889
11707.91,12.85008
11709.84,12.89355
11711.77,12.94676
11713.7,13.02253
11715.63,13.01642
11717.56,12.95104
11719.48,13.01628
11721.41,12.95166
11723.34,12.92715
11725.27,12.90162
11727.2,12.89816
11729.13,12.84433
11731.06,12.87094
11732.98,12.95308
11734.91,13.03519
11736.84,13.03212
11738.77,12.94054
11740.7,13.00795
11742.63,12.97513
11744.56,12.89055
11746.48,12.94294
11748.41,13.03234
11750.34,13.00041
11752.27,12.87427
11754.2,12.92904
11756.13,12.8802
11758.05,12.94963
11759.98,12.98796
11761.91,12.9159
11763.84,13.0444
11765.77,13.08361
11767.7,13.02477
11769.63,13.06789
11771.55,13.02059
11773.48,12.91453
11775.41,12.93225
11777.34,13.08381
11779.27,13.12222
11781.2,12.96169
11783.13,12.90631
11785.05,12.98142
11786.98,12.95722
11788.91,13.09307
11790.84,13.0115
11792.77,12.90619
11794.7,12.96338
11796.63,12.9738
11798.55,12.99442
11800.48,12.9989
11802.41,12.93813
11804.34,12.96291
11806.27,13.02614
11808.2,13.00683
11810.12,12.90758
11812.05,12.91809
11813.98,13.0701
11815.91,13.21405
11817.84,13.18476
11819.77,13.08345
11821.7,13.05081
11823.62,13.04161
11825.55,13.09856
11827.48,13.02295
11829.41,12.99991
11831.34,13.04453
11833.27,12.98876
11835.19,12.92412
11837.12,13.01657
11839.05,13.08845
11840.98,13.09469
11842.91,13.05313
11844.84,13.0379
11846.77,13.1596
11848.69,13.25956
11850.62,13.05313
11852.55,13.03019
11854.48,13.06177
11856.41,13.10076
11858.34,12.94746
11860.27,13.02148
11862.19,13.1005
11864.12,13.02773
11866.05,12.98393
11867.98,12.96968
11869.91,12.97465
11871.84,12.91229
11873.76,12.95763
11875.69,12.97041
11877.62,12.97364
11879.55,13.0368
11881.48,13.12936
11883.41,12.99545
11885.34,12.89599
11887.26,12.9091
11889.19,12.87043
11891.12,12.95585
11893.05,13.02176
11894.98,12.99077
11896.91,13.10002
11898.83,13.18871
11900.76,13.06074
11902.69,12.96492
11904.62,12.92634
11906.55,12.89175
11908.48,12.84405
11910.41,12.93229
11912.33,13.02161
11914.26,13.05646
11916.19,12.99344
11918.12,12.92327
11920.05,13.01267
11921.98,12.9511
11923.91,12.8826
11925.83,12.96518
11927.76,13.02614
11929.69,13.097
11931.62,13.13901
11933.55,13.04109
11935.48,13.15169
11937.41,13.19009
11939.33,12.99315
11941.26,13.14295
11943.19,13.13559
11945.12,12.99384
11947.05,12.86486
11948.98,12.88932
11950.9,12.90467
11952.83,12.92673
11954.76,12.93409
11956.69,13.01019
11958.62,13.07665
11960.55,12.97467
11962.48,12.8893
11964.4,12.98511
11966.33,12.97488
11968.26,12.91055
11970.19,13.02301
11972.12,13.06877
11974.05,13.09449
11975.98,13.20998
11977.9,13.06682
11979.83,12.94924
11981.76,13.08589
11983.69,13.05363
11985.62,12.96709
11987.55,12.98114
11989.47,13.05305
11991.4,13.02406
11993.33,12.87417
11995.26,12.88747
11997.19,12.9
11999.12,12.91767
