Wavenumber,Intensity
3999.706,2.202028
4001.634,2.193525
4003.563,2.191525
4005.491,2.193472
4007.42,2.199647
4009.348,2.206941
4011.277,2.205069
4013.205,2.199307
4015.134,2.198876
4017.062,2.202476
4018.991,2.201056
4020.919,2.200633
4022.848,2.203123
4024.776,2.207343
4026.705,2.209777
4028.633,2.205538
4030.562,2.204339
4032.49,2.209694
4034.419,2.211915
4036.347,2.208556
4038.276,2.206879
4040.204,2.212095
4042.133,2.212731
4044.061,2.215046
4045.99,2.212621
4047.918,2.208883
4049.847,2.210098
4051.775,2.210628
4053.704,2.211795
4055.632,2.21629
4057.561,2.217256
4059.489,2.210979
4061.418,2.214096
4063.346,2.221449
4065.275,2.22157
4067.203,2.216383
4069.132,2.216099
4071.06,2.217491
4072.989,2.216247
4074.917,2.218627
4076.846,2.224359
4078.774,2.228301
4080.703,2.226339
4082.631,2.225198
4084.56,2.224416
4086.488,2.225145
4088.417,2.225946
4090.345,2.225787
4092.274,2.230704
4094.202,2.231822
4096.131,2.227708
4098.059,2.226969
4099.988,2.231467
4101.916,2.234391
4103.845,2.231524
4105.773,2.228581
4107.702,2.228351
4109.63,2.231056
4111.559,2.233048
4113.487,2.232531
4115.416,2.232776
4117.344,2.235184
4119.273,2.236515
4121.201,2.234544
4123.13,2.233193
4125.058,2.234235
4126.987,2.238042
4128.915,2.240865
4130.844,2.235702
4132.772,2.235151
4134.701,2.240639
4136.629,2.237938
4138.558,2.231966
4140.486,2.233516
4142.415,2.237288
4144.343,2.236637
4146.271,2.236547
4148.2,2.238514
4150.129,2.237585
4152.057,2.238261
4153.986,2.234518
4155.914,2.238432
4157.843,2.239545
4159.771,2.23773
4161.7,2.241396
4163.628,2.242038
4165.557,2.239522
4167.485,2.242289
4169.414,2.247387
4171.342,2.245932
4173.271,2.244746
4175.199,2.24621
4177.127,2.250388
4179.056,2.252704
4180.985,2.25242
4182.913,2.251112
4184.842,2.250599
4186.77,2.253877
4188.699,2.259557
4190.627,2.260746
4192.556,2.257768
4194.484,2.263258
4196.413,2.264765
4198.341,2.260689
4200.27,2.260701
4202.198,2.263041
4204.126,2.268139
4206.055,2.270446
4207.983,2.273724
4209.912,2.274217
4211.841,2.275479
4213.769,2.275327
4215.698,2.280002
4217.626,2.282171
4219.555,2.281121
4221.483,2.283695
4223.412,2.283321
4225.34,2.280389
4227.269,2.281573
4229.197,2.283945
4231.125,2.284784
4233.054,2.285754
4234.982,2.285141
4236.911,2.288188
4238.84,2.288886
4240.768,2.284638
4242.697,2.287189
4244.625,2.289941
4246.554,2.290817
4248.482,2.292072
4250.411,2.291908
4252.339,2.292243
4254.268,2.295422
4256.196,2.297286
4258.125,2.300148
4260.053,2.302268
4261.981,2.302391
4263.91,2.30246
4265.838,2.303451
4267.767,2.304496
4269.696,2.304207
4271.624,2.302924
4273.553,2.307057
4275.481,2.307363
4277.41,2.306578
4279.338,2.305095
4281.267,2.307196
4283.195,2.31199
4285.124,2.311205
4287.052,2.308098
4288.98,2.308095
4290.909,2.308069
4292.837,2.309064
4294.766,2.309664
4296.694,2.311604
4298.623,2.311078
4300.552,2.309543
4302.48,2.309837
4304.409,2.311523
4306.337,2.310456
4308.266,2.30979
4310.194,2.309775
4312.123,2.309973
4314.051,2.309401
4315.979,2.309375
4317.908,2.308522
4319.836,2.309717
4321.765,2.308226
4323.693,2.307466
4325.622,2.31086
4327.551,2.311304
4329.479,2.309306
4331.408,2.308518
4333.336,2.308606
4335.265,2.306699
4337.193,2.310636
4339.122,2.315187
4341.05,2.314193
4342.979,2.314671
4344.907,2.317176
4346.835,2.311564
4348.764,2.312007
4350.692,2.316234
4352.621,2.319061
4354.549,2.320287
4356.478,2.320704
4358.407,2.317323
4360.335,2.318624
4362.264,2.319755
4364.192,2.317374
4366.121,2.317201
4368.049,2.320275
4369.978,2.319199
4371.906,2.320501
4373.834,2.320743
4375.763,2.320428
4377.691,2.316254
4379.62,2.313662
4381.548,2.316849
4383.477,2.31682
4385.405,2.313245
4387.334,2.312494
4389.263,2.312535
4391.191,2.312973
4393.12,2.315028
4395.048,2.311815
4396.977,2.310912
4398.905,2.315134
4400.833,2.313672
4402.762,2.313527
4404.69,2.314856
4406.619,2.316506
4408.547,2.317383
4410.476,2.316722
4412.404,2.316926
4414.333,2.319344
4416.262,2.318338
4418.19,2.320926
4420.119,2.325176
4422.047,2.329083
4423.976,2.335824
4425.904,2.345209
4427.833,2.360911
4429.761,2.377603
4431.689,2.392608
4433.618,2.413818
4435.546,2.43718
4437.475,2.46584
4439.403,2.494421
4441.332,2.520496
4443.26,2.548558
4445.189,2.58018
4447.117,2.608271
4449.046,2.634304
4450.975,2.661324
4452.903,2.684564
4454.832,2.708128
4456.76,2.735366
4458.688,2.757803
4460.617,2.780126
4462.545,2.798932
4464.474,2.816556
4466.402,2.835233
4468.331,2.850003
4470.259,2.862643
4472.188,2.875812
4474.116,2.888991
4476.045,2.903711
4477.974,2.91459
4479.902,2.922606
4481.831,2.929474
4483.759,2.937406
4485.688,2.946048
4487.616,2.951787
4489.544,2.955389
4491.473,2.963122
4493.401,2.971241
4495.33,2.973639
4497.258,2.975795
4499.187,2.981566
4501.115,2.986845
4503.044,2.989403
4504.972,2.992849
4506.901,2.997351
4508.83,2.999927
4510.758,3.005631
4512.687,3.014197
4514.615,3.01656
4516.543,3.020614
4518.472,3.029122
4520.4,3.034972
4522.329,3.03956
4524.257,3.04485
4526.186,3.047044
4528.114,3.055098
4530.043,3.061423
4531.971,3.063697
4533.9,3.070324
4535.828,3.077271
4537.757,3.079361
4539.686,3.081901
4541.614,3.080345
4543.542,3.079072
4545.471,3.081475
4547.399,3.083017
4549.328,3.085178
4551.256,3.08417
4553.185,3.082525
4555.113,3.08186
4557.042,3.083586
4558.97,3.087193
4560.899,3.090558
4562.827,3.092777
4564.756,3.095205
4566.685,3.098966
4568.613,3.104579
4570.542,3.114671
4572.47,3.12681
4574.398,3.135653
4576.327,3.146904
4578.255,3.157559
4580.184,3.168615
4582.112,3.187403
4584.041,3.204491
4585.969,3.220685
4587.898,3.23805
4589.826,3.259067
4591.755,3.278921
4593.683,3.300382
4595.612,3.321172
4597.54,3.337747
4599.469,3.353278
4601.397,3.370396
4603.326,3.387039
4605.254,3.401603
4607.183,3.416025
4609.111,3.429583
4611.04,3.440639
4612.968,3.451179
4614.897,3.458761
4616.825,3.466945
4618.754,3.47405
4620.682,3.480102
4622.611,3.485921
4624.539,3.493156
4626.468,3.4989
4628.396,3.506181
4630.325,3.513887
4632.253,3.518789
4634.182,3.526289
4636.11,3.534385
4638.039,3.541419
4639.967,3.550368
4641.896,3.564471
4643.824,3.575071
4645.753,3.58396
4647.681,3.593093
4649.61,3.605067
4651.538,3.617322
4653.467,3.62756
4655.396,3.637775
4657.324,3.650576
4659.252,3.663209
4661.181,3.678501
4663.109,3.691113
4665.038,3.701068
4666.966,3.71535
4668.895,3.729586
4670.823,3.739653
4672.752,3.746489
4674.68,3.755244
4676.609,3.765883
4678.537,3.775642
4680.466,3.781455
4682.394,3.788659
4684.323,3.798403
4686.251,3.802325
4688.18,3.801487
4690.108,3.805726
4692.037,3.810179
4693.965,3.810003
4695.894,3.814088
4697.822,3.816567
4699.751,3.821539
4701.679,3.825583
4703.608,3.829585
4705.536,3.834317
4707.465,3.836232
4709.393,3.837386
4711.322,3.843094
4713.25,3.847517
4715.179,3.850856
4717.107,3.850672
4719.036,3.851065
4720.964,3.852122
4722.893,3.848931
4724.821,3.849807
4726.75,3.852426
4728.678,3.85275
4730.606,3.855789
4732.535,3.860082
4734.464,3.86091
4736.392,3.863431
4738.321,3.867495
4740.249,3.870678
4742.178,3.870842
4744.106,3.872466
4746.035,3.873666
4747.963,3.872715
4749.892,3.872408
4751.82,3.868879
4753.749,3.866229
4755.677,3.862329
4757.605,3.857093
4759.534,3.852158
4761.463,3.847759
4763.391,3.839997
4765.32,3.835128
4767.248,3.833518
4769.177,3.829014
4771.105,3.825367
4773.034,3.822218
4774.962,3.816279
4776.891,3.809224
4778.819,3.802762
4780.748,3.798365
4782.676,3.794618
4784.604,3.790648
4786.533,3.786472
4788.462,3.782395
4790.39,3.778879
4792.319,3.779977
4794.247,3.781177
4796.176,3.77957
4798.104,3.778431
4800.033,3.782471
4801.961,3.780823
4803.89,3.779788
4805.818,3.784676
4807.747,3.787858
4809.675,3.785111
4811.604,3.782281
4813.532,3.7846
4815.46,3.78686
4817.389,3.787682
4819.317,3.788647
4821.246,3.790596
4823.175,3.79369
4825.103,3.796878
4827.032,3.80443
4828.96,3.802643
4830.889,3.799985
4832.817,3.803129
4834.746,3.802343
4836.674,3.799628
4838.603,3.799687
4840.531,3.797271
4842.459,3.794275
4844.388,3.795041
4846.316,3.795776
4848.245,3.794214
4850.174,3.794377
4852.102,3.795521
4854.031,3.799259
4855.959,3.803688
4857.888,3.810255
4859.816,3.815441
4861.745,3.819852
4863.673,3.82271
4865.602,3.827428
4867.53,3.833199
4869.458,3.839735
4871.387,3.847336
4873.315,3.851137
4875.244,3.857338
4877.172,3.862375
4879.101,3.867611
4881.03,3.867025
4882.958,3.867976
4884.887,3.871049
4886.815,3.872254
4888.744,3.872802
4890.672,3.877164
4892.601,3.880874
4894.529,3.884029
4896.458,3.887509
4898.386,3.887418
4900.314,3.884535
4902.243,3.881544
4904.171,3.880102
4906.1,3.879463
4908.028,3.874565
4909.957,3.870815
4911.886,3.868112
4913.814,3.865607
4915.743,3.862432
4917.671,3.857491
4919.6,3.855497
4921.528,3.855598
4923.457,3.855221
4925.385,3.85371
4927.313,3.852195
4929.242,3.851705
4931.17,3.849995
4933.099,3.84899
4935.027,3.846712
4936.956,3.844687
4938.885,3.841136
4940.813,3.840467
4942.742,3.838758
4944.67,3.834867
4946.599,3.834026
4948.527,3.83032
4950.456,3.824495
4952.384,3.820561
4954.313,3.816895
4956.241,3.811335
4958.169,3.808693
4960.098,3.803661
4962.026,3.794404
4963.955,3.791187
4965.883,3.78773
4967.812,3.783699
4969.74,3.781713
4971.669,3.780262
4973.598,3.777704
4975.526,3.776515
4977.455,3.772244
4979.383,3.764062
4981.312,3.7582
4983.24,3.754754
4985.168,3.750425
4987.097,3.740385
4989.025,3.734421
4990.954,3.732414
4992.882,3.723674
4994.811,3.715004
4996.739,3.709309
4998.668,3.703162
5000.597,3.693457
5002.525,3.683043
5004.454,3.669017
5006.382,3.658766
5008.311,3.650729
5010.239,3.640054
5012.167,3.630173
5014.096,3.621671
5016.024,3.608629
5017.953,3.593834
5019.881,3.580659
5021.81,3.569212
5023.738,3.556154
5025.667,3.54432
5027.596,3.534236
5029.524,3.523409
5031.452,3.515216
5033.381,3.50578
5035.31,3.496383
5037.238,3.489206
5039.167,3.484116
5041.095,3.478885
5043.023,3.471643
5044.952,3.465475
5046.88,3.462429
5048.809,3.459931
5050.737,3.454406
5052.666,3.451632
5054.595,3.452718
5056.523,3.451943
5058.451,3.449148
5060.38,3.449964
5062.309,3.453081
5064.237,3.450262
5066.166,3.450146
5068.094,3.450992
5070.022,3.452219
5071.951,3.45474
5073.879,3.457731
5075.808,3.46015
5077.736,3.464843
5079.665,3.471396
5081.593,3.475203
5083.522,3.478504
5085.45,3.482129
5087.379,3.485945
5089.308,3.490506
5091.236,3.492799
5093.165,3.494435
5095.093,3.497499
5097.021,3.49935
5098.95,3.501597
5100.878,3.508451
5102.807,3.511353
5104.735,3.514904
5106.664,3.51853
5108.592,3.521275
5110.521,3.526823
5112.449,3.531867
5114.378,3.537234
5116.307,3.538607
5118.235,3.54084
5120.163,3.542223
5122.092,3.543053
5124.021,3.541794
5125.949,3.539892
5127.877,3.538708
5129.806,3.539866
5131.734,3.536744
5133.663,3.534639
5135.591,3.534932
5137.52,3.533169
5139.448,3.534318
5141.377,3.534381
5143.305,3.531032
5145.234,3.530995
5147.162,3.535191
5149.091,3.537015
5151.02,3.53844
5152.948,3.540718
5154.876,3.544515
5156.805,3.546777
5158.733,3.547484
5160.662,3.546541
5162.59,3.546673
5164.519,3.542364
5166.447,3.540646
5168.376,3.545268
5170.304,3.546035
5172.233,3.543812
5174.161,3.547778
5176.09,3.548454
5178.019,3.548136
5179.947,3.550451
5181.875,3.551855
5183.804,3.558131
5185.732,3.55229
5187.661,3.549758
5189.589,3.549182
5191.518,3.546418
5193.446,3.545758
5195.375,3.544079
5197.303,3.535595
5199.232,3.522251
5201.16,3.51463
5203.089,3.509616
5205.018,3.513838
5206.946,3.501542
5208.874,3.485118
5210.803,3.472641
5212.731,3.471162
5214.66,3.469663
5216.588,3.47294
5218.517,3.472842
5220.445,3.473101
5222.374,3.483274
5224.302,3.494228
5226.231,3.488429
5228.159,3.488196
5230.088,3.497681
5232.016,3.499871
5233.945,3.501338
5235.873,3.507077
5237.802,3.512766
5239.73,3.509447
5241.659,3.514915
5243.587,3.524204
5245.516,3.522936
5247.444,3.520677
5249.373,3.503911
5251.301,3.506237
5253.229,3.512321
5255.158,3.50332
5257.087,3.492372
5259.015,3.494788
5260.944,3.495431
5262.872,3.492364
5264.801,3.47964
5266.729,3.472898
5268.658,3.470898
5270.586,3.463611
5272.515,3.462993
5274.443,3.463278
5276.372,3.459808
5278.3,3.462623
5280.229,3.459681
5282.157,3.454347
5284.086,3.456837
5286.014,3.45562
5287.943,3.459798
5289.871,3.462859
5291.8,3.45866
5293.729,3.461827
5295.657,3.461989
5297.585,3.468067
5299.514,3.473236
5301.442,3.475432
5303.371,3.477315
5305.299,3.482718
5307.228,3.482175
5309.156,3.47649
5311.085,3.475637
5313.013,3.478769
5314.941,3.483345
5316.87,3.482392
5318.799,3.484879
5320.727,3.486665
5322.656,3.486698
5324.584,3.49246
5326.513,3.498565
5328.441,3.488968
5330.37,3.492411
5332.298,3.493259
5334.227,3.496654
5336.155,3.508668
5338.084,3.508258
5340.012,3.498118
5341.94,3.512235
5343.869,3.524734
5345.798,3.517996
5347.726,3.525105
5349.655,3.525926
5351.583,3.538469
5353.512,3.538855
5355.44,3.530035
5357.369,3.531016
5359.297,3.534145
5361.226,3.537358
5363.154,3.534056
5365.083,3.524976
5367.011,3.521204
5368.939,3.515117
5370.868,3.508295
5372.797,3.501892
5374.725,3.492096
5376.654,3.475488
5378.582,3.456556
5380.511,3.44667
5382.439,3.437435
5384.368,3.43174
5386.296,3.409339
5388.225,3.395104
5390.153,3.389151
5392.082,3.387909
5394.01,3.37543
5395.938,3.363624
5397.867,3.350212
5399.796,3.338272
5401.724,3.330674
5403.652,3.319966
5405.581,3.306559
5407.51,3.299642
5409.438,3.290326
5411.367,3.27143
5413.295,3.255475
5415.224,3.225105
5417.152,3.207157
5419.081,3.189937
5421.009,3.17883
5422.938,3.168797
5424.866,3.155802
5426.795,3.149402
5428.723,3.135036
5430.651,3.113287
5432.58,3.113633
5434.509,3.098787
5436.437,3.079984
5438.366,3.080253
5440.294,3.073867
5442.223,3.054244
5444.151,3.053042
5446.08,3.035784
5448.008,3.024395
5449.937,3.010765
5451.865,2.998095
5453.793,2.996019
5455.722,2.99012
5457.65,2.983332
5459.579,2.981272
5461.508,2.969961
5463.436,2.963492
5465.365,2.958208
5467.293,2.959139
5469.222,2.953322
5471.15,2.946019
5473.079,2.953876
5475.007,2.952096
5476.936,2.936293
5478.864,2.937059
5480.792,2.936311
5482.721,2.936775
5484.649,2.936867
5486.578,2.941437
5488.507,2.939657
5490.435,2.940719
5492.363,2.944218
5494.292,2.936685
5496.221,2.937747
5498.149,2.942535
5500.078,2.943984
5502.006,2.948017
5503.935,2.948437
5505.863,2.954504
5507.792,2.957394
5509.72,2.955932
5511.648,2.958081
5513.577,2.958682
5515.505,2.961793
5517.434,2.962664
5519.362,2.964746
5521.291,2.965356
5523.22,2.963767
5525.148,2.963151
5527.077,2.969035
5529.005,2.971386
5530.934,2.973724
5532.862,2.975581
5534.791,2.978507
5536.719,2.979424
5538.647,2.981703
5540.576,2.98641
5542.504,2.989902
5544.433,2.99197
5546.361,2.995333
5548.29,3.000302
5550.219,3.006082
5552.147,3.006256
5554.076,3.005335
5556.004,3.006833
5557.933,3.010259
5559.861,3.011276
5561.79,3.012237
5563.718,3.015485
5565.646,3.016538
5567.575,3.015974
5569.503,3.018051
5571.432,3.019669
5573.36,3.021059
5575.289,3.017474
5577.218,3.017085
5579.146,3.018152
5581.074,3.019401
5583.003,3.022637
5584.932,3.026568
5586.86,3.02847
5588.789,3.025647
5590.717,3.028134
5592.646,3.027716
5594.574,3.026381
5596.502,3.027153
5598.431,3.021071
5600.359,3.014229
5602.288,3.009882
5604.216,3.001147
5606.145,2.995424
5608.073,2.98652
5610.002,2.975735
5611.931,2.961667
5613.859,2.944359
5615.788,2.933322
5617.716,2.92511
5619.645,2.913349
5621.573,2.901482
5623.501,2.892318
5625.43,2.886356
5627.358,2.882521
5629.287,2.877261
5631.215,2.863943
5633.144,2.854561
5635.072,2.847173
5637.001,2.841376
5638.93,2.832793
5640.858,2.823458
5642.786,2.810837
5644.715,2.796514
5646.644,2.792416
5648.572,2.786751
5650.5,2.779616
5652.429,2.77623
5654.357,2.77493
5656.286,2.777781
5658.214,2.778495
5660.143,2.776885
5662.071,2.775267
5664.0,2.77684
5665.929,2.777477
5667.857,2.778218
5669.785,2.77935
5671.714,2.779792
5673.643,2.780818
5675.571,2.779851
5677.5,2.77676
5679.428,2.774895
5681.356,2.773449
5683.285,2.774622
5685.213,2.771585
5687.142,2.768819
5689.07,2.76736
5690.999,2.766605
5692.927,2.761913
5694.856,2.756582
5696.784,2.754984
5698.713,2.752406
5700.642,2.749071
5702.57,2.74365
5704.499,2.741498
5706.427,2.741734
5708.355,2.739242
5710.284,2.738575
5712.212,2.740707
5714.141,2.74052
5716.069,2.736594
5717.998,2.734378
5719.926,2.730393
5721.855,2.722715
5723.783,2.715473
5725.712,2.705861
5727.641,2.695714
5729.569,2.685773
5731.497,2.671293
5733.426,2.654074
5735.354,2.636422
5737.283,2.620342
5739.211,2.602833
5741.14,2.587883
5743.068,2.573916
5744.997,2.558719
5746.925,2.544007
5748.854,2.525058
5750.782,2.514567
5752.711,2.508912
5754.639,2.505299
5756.568,2.503473
5758.496,2.50321
5760.425,2.505203
5762.354,2.51061
5764.282,2.516355
5766.21,2.519299
5768.139,2.52077
5770.067,2.523122
5771.996,2.524652
5773.924,2.525373
5775.853,2.527018
5777.781,2.523062
5779.71,2.520371
5781.638,2.517025
5783.567,2.512686
5785.495,2.508299
5787.424,2.501913
5789.353,2.49748
5791.281,2.493488
5793.209,2.488087
5795.138,2.485539
5797.066,2.486499
5798.995,2.49029
5800.923,2.489531
5802.852,2.493461
5804.78,2.498795
5806.709,2.507187
5808.637,2.511935
5810.566,2.520547
5812.494,2.533019
5814.423,2.542161
5816.352,2.549906
5818.28,2.559228
5820.208,2.566071
5822.137,2.570119
5824.065,2.574097
5825.994,2.577393
5827.922,2.576527
5829.851,2.5727
5831.779,2.571167
5833.708,2.56719
5835.636,2.559866
5837.565,2.553012
5839.493,2.547124
5841.422,2.538223
5843.35,2.532368
5845.279,2.527557
5847.207,2.521559
5849.136,2.515209
5851.064,2.511313
5852.993,2.502472
5854.921,2.492338
5856.85,2.489703
5858.778,2.493608
5860.707,2.499444
5862.635,2.502245
5864.563,2.503356
5866.492,2.511063
5868.421,2.522503
5870.349,2.53569
5872.278,2.54587
5874.206,2.563572
5876.135,2.58566
5878.063,2.607867
5879.992,2.625865
5881.92,2.644214
5883.849,2.659081
5885.777,2.663323
5887.706,2.66294
5889.634,2.660328
5891.563,2.656509
5893.491,2.658718
5895.42,2.660352
5897.348,2.66012
5899.277,2.661037
5901.205,2.655874
5903.134,2.647134
5905.063,2.637597
5906.991,2.630752
5908.919,2.634522
5910.848,2.649789
5912.776,2.683807
5914.705,2.741703
5916.633,2.816612
5918.562,2.908253
5920.49,3.018671
5922.419,3.139812
5924.347,3.270021
5926.276,3.404898
5928.204,3.539626
5930.133,3.673927
5932.061,3.807128
5933.99,3.94263
5935.918,4.076285
5937.847,4.201692
5939.775,4.322629
5941.704,4.437469
5943.632,4.54596
5945.561,4.649373
5947.489,4.750704
5949.418,4.843487
5951.346,4.928016
5953.274,5.008196
5955.203,5.085689
5957.132,5.154877
5959.06,5.22605
5960.989,5.295281
5962.917,5.356597
5964.846,5.411529
5966.774,5.467855
5968.703,5.516806
5970.631,5.566325
5972.56,5.614688
5974.488,5.660352
5976.417,5.698744
5978.345,5.738793
5980.273,5.774091
5982.202,5.808656
5984.131,5.838953
5986.059,5.868006
5987.988,5.896354
5989.916,5.924161
5991.845,5.944052
5993.773,5.96404
5995.702,5.981433
5997.63,6.000331
5999.559,6.016993
6001.487,6.031169
6003.416,6.044343
6005.344,6.058803
6007.272,6.071029
6009.201,6.084407
6011.13,6.094772
6013.058,6.110795
6014.986,6.125319
6016.915,6.139682
6018.844,6.151162
6020.772,6.164351
6022.701,6.173395
6024.629,6.185521
6026.558,6.19382
6028.486,6.205232
6030.415,6.212999
6032.343,6.217223
6034.271,6.220738
6036.2,6.228599
6038.129,6.233223
6040.057,6.233515
6041.985,6.234355
6043.914,6.234611
6045.843,6.233075
6047.771,6.236424
6049.7,6.236812
6051.628,6.236115
6053.557,6.235498
6055.485,6.240916
6057.414,6.242443
6059.342,6.239359
6061.271,6.235238
6063.199,6.235856
6065.128,6.232124
6067.056,6.23292
6068.984,6.231815
6070.913,6.22744
6072.842,6.225663
6074.77,6.227021
6076.698,6.225742
6078.627,6.221249
6080.556,6.218281
6082.484,6.218998
6084.413,6.217776
6086.341,6.217942
6088.27,6.220057
6090.198,6.220311
6092.126,6.216785
6094.055,6.216307
6095.983,6.216972
6097.912,6.220972
6099.841,6.226392
6101.769,6.231905
6103.697,6.236621
6105.626,6.246001
6107.555,6.249182
6109.483,6.258701
6111.412,6.27284
6113.34,6.283434
6115.269,6.292515
6117.197,6.303025
6119.125,6.31601
6121.054,6.330228
6122.982,6.341801
6124.911,6.357563
6126.84,6.370823
6128.768,6.386159
6130.696,6.404384
6132.625,6.423109
6134.554,6.445739
6136.482,6.46947
6138.41,6.489045
6140.339,6.514504
6142.268,6.539889
6144.196,6.567352
6146.125,6.595505
6148.053,6.627997
6149.981,6.659635
6151.91,6.691022
6153.839,6.723628
6155.767,6.764194
6157.695,6.801654
6159.624,6.837895
6161.553,6.87535
6163.481,6.918298
6165.409,6.957185
6167.338,6.997324
6169.267,7.039335
6171.195,7.079256
6173.124,7.117662
6175.052,7.158378
6176.98,7.187993
6178.909,7.21996
6180.837,7.25516
6182.766,7.288207
6184.694,7.314383
6186.623,7.340199
6188.552,7.367027
6190.48,7.395367
6192.408,7.416372
6194.337,7.436607
6196.266,7.457839
6198.194,7.472129
6200.123,7.48137
6202.051,7.490909
6203.979,7.505723
6205.908,7.519079
6207.836,7.525758
6209.765,7.533599
6211.693,7.537833
6213.622,7.545774
6215.551,7.556009
6217.479,7.57187
6219.407,7.584356
6221.336,7.594908
6223.265,7.607882
6225.193,7.620953
6227.121,7.631498
6229.05,7.643186
6230.979,7.65124
6232.907,7.659545
6234.835,7.668636
6236.764,7.680575
6238.692,7.686051
6240.621,7.692612
6242.549,7.703711
6244.478,7.716311
6246.406,7.724039
6248.335,7.738525
6250.264,7.755298
6252.192,7.771329
6254.12,7.781158
6256.049,7.792917
6257.978,7.81354
6259.906,7.833054
6261.834,7.846084
6263.763,7.864234
6265.691,7.879653
6267.62,7.897336
6269.548,7.908329
6271.477,7.921866
6273.405,7.934606
6275.334,7.941552
6277.263,7.952604
6279.191,7.965942
6281.119,7.978611
6283.048,7.988974
6284.977,7.997023
6286.905,8.004345
6288.833,8.00682
6290.762,8.014042
6292.69,8.021816
6294.619,8.027463
6296.547,8.033291
6298.476,8.042644
6300.404,8.051591
6302.333,8.064163
6304.262,8.072447
6306.19,8.077922
6308.118,8.083014
6310.047,8.090254
6311.976,8.101584
6313.904,8.118904
6315.832,8.130253
6317.761,8.139678
6319.689,8.147673
6321.618,8.163196
6323.546,8.176864
6325.475,8.18907
6327.403,8.204209
6329.332,8.21664
6331.26,8.226708
6333.189,8.240466
6335.117,8.254443
6337.046,8.267928
6338.975,8.274006
6340.903,8.279116
6342.831,8.291047
6344.76,8.305779
6346.688,8.312359
6348.617,8.319059
6350.545,8.329247
6352.474,8.338426
6354.402,8.341908
6356.331,8.348756
6358.259,8.356544
6360.188,8.362218
6362.116,8.36595
6364.045,8.368277
6365.974,8.371222
6367.902,8.379141
6369.83,8.385634
6371.759,8.390357
6373.688,8.398705
6375.616,8.40908
6377.544,8.418712
6379.473,8.427247
6381.401,8.432523
6383.33,8.442611
6385.258,8.449029
6387.187,8.453859
6389.115,8.460894
6391.044,8.469072
6392.973,8.476305
6394.901,8.483154
6396.829,8.486306
6398.758,8.491094
6400.687,8.497693
6402.615,8.502991
6404.543,8.506868
6406.472,8.513078
6408.4,8.514742
6410.329,8.516621
6412.257,8.517699
6414.186,8.513435
6416.114,8.515472
6418.043,8.522357
6419.971,8.519516
6421.9,8.516207
6423.828,8.518008
6425.757,8.516991
6427.686,8.515763
6429.614,8.518936
6431.542,8.518646
6433.471,8.522448
6435.399,8.523122
6437.328,8.52007
6439.256,8.515345
6441.185,8.518831
6443.113,8.519718
6445.042,8.518373
6446.97,8.520526
6448.898,8.522888
6450.827,8.519245
6452.756,8.5157
6454.685,8.516225
6456.613,8.524357
6458.541,8.523749
6460.47,8.518683
6462.398,8.517406
6464.327,8.513298
6466.255,8.510119
6468.184,8.505397
6470.112,8.504894
6472.041,8.509478
6473.969,8.506359
6475.897,8.504399
6477.826,8.505006
6479.755,8.506442
6481.684,8.504918
6483.612,8.502822
6485.54,8.503248
6487.469,8.502121
6489.397,8.498066
6491.326,8.497481
6493.254,8.493982
6495.183,8.485514
6497.111,8.475451
6499.04,8.470357
6500.968,8.465844
6502.896,8.461504
6504.825,8.456517
6506.754,8.446306
6508.682,8.429203
6510.61,8.418616
6512.539,8.404524
6514.468,8.395874
6516.396,8.389459
6518.325,8.372612
6520.253,8.355484
6522.182,8.352765
6524.11,8.341656
6526.039,8.326423
6527.967,8.310255
6529.896,8.294904
6531.824,8.282267
6533.753,8.268662
6535.681,8.248954
6537.609,8.231497
6539.538,8.216476
6541.467,8.196984
6543.396,8.180745
6545.324,8.167436
6547.252,8.149769
6549.181,8.137589
6551.109,8.118233
6553.038,8.09733
6554.966,8.079496
6556.895,8.065249
6558.823,8.044232
6560.752,8.018926
6562.68,7.997342
6564.608,7.972086
6566.537,7.943021
6568.466,7.921476
6570.394,7.896533
6572.323,7.870272
6574.251,7.848736
6576.18,7.824193
6578.108,7.799742
6580.037,7.777859
6581.965,7.757644
6583.894,7.743292
6585.822,7.724884
6587.751,7.707071
6589.679,7.696602
6591.607,7.683778
6593.536,7.669102
6595.465,7.657858
6597.393,7.649471
6599.321,7.635945
6601.25,7.620094
6603.179,7.608648
6605.107,7.596665
6607.036,7.58646
6608.964,7.573942
6610.893,7.561508
6612.821,7.546999
6614.75,7.531406
6616.678,7.515348
6618.606,7.502759
6620.535,7.48553
6622.464,7.46823
6624.392,7.450048
6626.32,7.432954
6628.249,7.420064
6630.178,7.401386
6632.106,7.380737
6634.035,7.362845
6635.963,7.341261
6637.892,7.318941
6639.82,7.299227
6641.749,7.27658
6643.677,7.250076
6645.605,7.226161
6647.534,7.20447
6649.463,7.184619
6651.391,7.161559
6653.319,7.14398
6655.248,7.121647
6657.177,7.091721
6659.105,7.066648
6661.034,7.04359
6662.962,7.02182
6664.891,6.996375
6666.819,6.970634
6668.748,6.941865
6670.676,6.911688
6672.604,6.885996
6674.533,6.867137
6676.462,6.844436
6678.39,6.816724
6680.318,6.792
6682.247,6.771262
6684.176,6.750611
6686.104,6.727361
6688.032,6.705065
6689.961,6.687852
6691.89,6.674949
6693.818,6.661594
6695.747,6.648065
6697.675,6.633769
6699.604,6.624927
6701.532,6.615793
6703.46,6.603269
6705.389,6.595475
6707.317,6.588416
6709.246,6.579173
6711.175,6.574383
6713.103,6.575765
6715.031,6.574411
6716.96,6.571313
6718.889,6.571566
6720.817,6.570311
6722.746,6.566076
6724.674,6.566327
6726.603,6.566084
6728.531,6.563313
6730.459,6.562944
6732.388,6.559099
6734.316,6.556437
6736.245,6.552184
6738.174,6.549387
6740.102,6.542575
6742.03,6.535631
6743.959,6.530754
6745.888,6.525882
6747.816,6.525756
6749.745,6.523316
6751.673,6.516443
6753.602,6.511649
6755.53,6.506633
6757.458,6.50729
6759.387,6.508895
6761.315,6.5034
6763.244,6.498895
6765.173,6.496342
6767.101,6.493611
6769.029,6.494139
6770.958,6.485258
6772.887,6.476128
6774.815,6.470743
6776.743,6.463629
6778.672,6.452306
6780.601,6.442358
6782.529,6.430789
6784.458,6.418147
6786.386,6.404057
6788.314,6.388441
6790.243,6.377208
6792.171,6.361186
6794.1,6.339913
6796.028,6.322584
6797.957,6.3102
6799.886,6.292655
6801.814,6.273922
6803.742,6.261615
6805.671,6.241474
6807.6,6.221559
6809.528,6.20785
6811.457,6.198633
6813.385,6.183722
6815.313,6.169901
6817.242,6.159822
6819.17,6.146869
6821.099,6.133569
6823.027,6.122082
6824.956,6.11775
6826.885,6.111219
6828.813,6.104162
6830.741,6.09508
6832.67,6.084635
6834.599,6.076441
6836.527,6.065827
6838.455,6.057485
6840.384,6.045457
6842.313,6.034682
6844.241,6.020092
6846.169,6.004794
6848.098,5.988162
6850.026,5.973844
6851.955,5.958707
6853.884,5.943152
6855.812,5.931701
6857.74,5.917323
6859.669,5.902364
6861.598,5.896031
6863.526,5.883514
6865.454,5.874004
6867.383,5.867445
6869.312,5.859146
6871.24,5.855347
6873.168,5.849618
6875.097,5.838367
6877.025,5.833079
6878.954,5.822788
6880.882,5.806448
6882.811,5.794529
6884.739,5.785318
6886.668,5.773259
6888.597,5.756879
6890.525,5.731796
6892.453,5.71196
6894.382,5.695401
6896.311,5.674677
6898.239,5.6515
6900.167,5.632313
6902.096,5.612413
6904.024,5.595363
6905.953,5.58042
6907.881,5.567672
6909.81,5.56132
6911.738,5.552389
6913.667,5.537749
6915.596,5.531676
6917.524,5.526162
6919.452,5.516728
6921.381,5.505804
6923.31,5.495516
6925.238,5.488414
6927.166,5.481283
6929.095,5.463577
6931.023,5.449744
6932.952,5.430578
6934.88,5.417125
6936.809,5.399098
6938.737,5.382396
6940.666,5.368159
6942.594,5.351166
6944.523,5.336533
6946.451,5.323594
6948.38,5.3134
6950.309,5.31018
6952.237,5.307081
6954.165,5.310334
6956.094,5.311568
6958.022,5.306509
6959.951,5.299216
6961.879,5.29772
6963.808,5.289829
6965.736,5.278529
6967.665,5.267992
6969.593,5.253142
6971.521,5.237611
6973.45,5.227179
6975.379,5.216346
6977.308,5.204608
6979.236,5.197841
6981.164,5.187953
6983.093,5.180774
6985.021,5.178488
6986.95,5.165752
6988.878,5.159782
6990.807,5.15765
6992.735,5.152471
6994.664,5.144665
6996.592,5.151462
6998.521,5.152525
7000.449,5.146292
7002.378,5.147301
7004.307,5.149606
7006.235,5.153396
7008.163,5.157421
7010.092,5.167769
7012.021,5.174723
7013.949,5.175869
7015.877,5.174698
7017.806,5.177296
7019.734,5.182655
7021.663,5.184994
7023.591,5.179593
7025.52,5.171123
7027.448,5.156462
7029.377,5.140739
7031.305,5.120732
7033.234,5.102118
7035.162,5.080328
7037.091,5.059246
7039.02,5.03404
7040.948,5.007365
7042.876,4.98161
7044.805,4.957967
7046.733,4.935936
7048.662,4.906904
7050.59,4.882266
7052.519,4.863067
7054.447,4.836191
7056.376,4.809235
7058.304,4.785741
7060.232,4.771438
7062.161,4.763766
7064.09,4.750709
7066.019,4.741714
7067.947,4.733129
7069.875,4.729028
7071.804,4.722423
7073.732,4.718831
7075.661,4.717497
7077.589,4.720631
7079.518,4.72891
7081.446,4.732547
7083.375,4.736353
7085.303,4.74703
7087.231,4.769478
7089.16,4.788905
7091.089,4.815047
7093.018,4.849167
7094.946,4.863801
7096.874,4.875626
7098.803,4.902999
7100.731,4.922215
7102.66,4.927579
7104.588,4.936982
7106.517,4.93452
7108.445,4.924138
7110.374,4.909413
7112.302,4.89132
7114.23,4.880517
7116.159,4.874527
7118.088,4.836823
7120.016,4.800014
7121.944,4.769396
7123.873,4.733756
7125.802,4.69757
7127.73,4.665089
7129.659,4.628802
7131.587,4.592659
7133.516,4.562231
7135.444,4.530809
7137.373,4.496882
7139.301,4.458618
7141.229,4.424011
7143.158,4.393874
7145.087,4.358844
7147.015,4.322178
7148.943,4.291501
7150.872,4.259199
7152.801,4.233577
7154.729,4.211514
7156.658,4.189773
7158.586,4.17955
7160.515,4.17496
7162.443,4.166343
7164.372,4.182933
7166.3,4.2066
7168.229,4.228921
7170.157,4.246037
7172.086,4.279886
7174.014,4.311539
7175.942,4.349261
7177.871,4.387983
7179.8,4.421791
7181.729,4.453241
7183.657,4.480347
7185.585,4.508243
7187.514,4.529939
7189.442,4.557441
7191.371,4.581386
7193.299,4.600632
7195.228,4.615767
7197.156,4.626275
7199.085,4.629934
7201.013,4.641326
7202.941,4.654088
7204.87,4.65151
7206.799,4.641145
7208.727,4.641161
7210.655,4.64008
7212.584,4.634889
7214.513,4.625799
7216.441,4.621157
7218.37,4.62291
7220.298,4.606109
7222.227,4.595072
7224.155,4.61554
7226.083,4.632467
7228.012,4.646435
7229.94,4.689841
7231.869,4.725958
7233.798,4.74303
7235.726,4.78664
7237.654,4.825781
7239.583,4.879228
7241.512,4.929451
7243.44,4.949374
7245.369,4.974633
7247.297,5.004877
7249.226,5.022395
7251.154,5.045732
7253.083,5.064118
7255.011,5.074687
7256.939,5.086627
7258.868,5.10744
7260.797,5.130025
7262.725,5.141506
7264.653,5.160431
7266.582,5.182176
7268.511,5.197484
7270.439,5.224223
7272.368,5.254449
7274.296,5.280396
7276.225,5.302483
7278.153,5.332544
7280.082,5.361259
7282.01,5.38279
7283.938,5.412101
7285.867,5.444522
7287.796,5.472042
7289.724,5.491561
7291.652,5.524625
7293.581,5.556889
7295.51,5.571749
7297.438,5.60521
7299.366,5.627063
7301.295,5.650833
7303.224,5.686538
7305.152,5.727016
7307.081,5.75719
7309.009,5.785703
7310.938,5.815929
7312.866,5.831331
7314.794,5.85763
7316.723,5.873399
7318.651,5.897927
7320.58,5.924154
7322.509,5.94774
7324.437,5.961881
7326.365,6.000016
7328.294,6.011402
7330.223,6.01787
7332.151,6.030617
7334.08,6.041421
7336.008,6.049641
7337.937,6.071725
7339.865,6.07527
7341.793,6.084036
7343.722,6.105462
7345.65,6.127942
7347.579,6.1566
7349.508,6.186719
7351.436,6.232237
7353.364,6.294242
7355.293,6.358626
7357.222,6.425972
7359.15,6.526692
7361.079,6.63505
7363.007,6.747366
7364.936,6.854573
7366.864,6.973914
7368.792,7.090574
7370.721,7.207064
7372.649,7.323082
7374.578,7.454923
7376.507,7.561706
7378.435,7.673345
7380.363,7.785676
7382.292,7.884154
7384.221,7.975307
7386.149,8.065059
7388.077,8.151362
7390.006,8.232269
7391.935,8.314329
7393.863,8.385469
7395.792,8.443285
7397.72,8.496938
7399.648,8.550142
7401.577,8.606967
7403.505,8.659169
7405.434,8.701336
7407.362,8.735718
7409.291,8.775607
7411.22,8.813318
7413.148,8.853383
7415.076,8.887517
7417.005,8.91438
7418.934,8.943423
7420.862,8.969488
7422.791,8.983714
7424.719,9.004976
7426.647,9.02956
7428.576,9.051267
7430.504,9.07208
7432.433,9.087698
7434.361,9.103632
7436.29,9.117428
7438.219,9.12188
7440.147,9.138113
7442.075,9.153524
7444.004,9.167751
7445.933,9.171089
7447.861,9.175281
7449.789,9.1937
7451.718,9.198717
7453.646,9.204444
7455.575,9.221132
7457.503,9.224663
7459.432,9.233869
7461.36,9.236256
7463.289,9.242025
7465.218,9.254243
7467.146,9.261409
7469.074,9.262946
7471.003,9.266761
7472.932,9.269526
7474.86,9.274219
7476.788,9.274754
7478.717,9.285147
7480.646,9.291162
7482.574,9.292815
7484.502,9.29228
7486.431,9.298282
7488.359,9.301128
7490.288,9.303167
7492.216,9.305069
7494.145,9.311872
7496.073,9.316817
7498.002,9.322591
7499.931,9.327063
7501.859,9.324512
7503.787,9.320584
7505.716,9.323092
7507.645,9.328031
7509.573,9.332695
7511.501,9.335352
7513.43,9.332611
7515.358,9.338023
7517.287,9.343845
7519.215,9.35149
7521.144,9.362243
7523.072,9.361872
7525.001,9.358653
7526.93,9.356364
7528.858,9.356483
7530.786,9.35767
7532.715,9.355262
7534.644,9.357587
7536.572,9.365298
7538.5,9.366197
7540.429,9.365442
7542.357,9.371234
7544.286,9.375429
7546.214,9.373204
7548.143,9.378206
7550.071,9.379996
7552.0,9.372643
7553.928,9.370564
7555.857,9.373007
7557.785,9.376711
7559.714,9.372703
7561.643,9.374099
7563.571,9.37346
7565.499,9.375708
7567.428,9.374851
7569.356,9.37041
7571.285,9.368667
7573.213,9.369868
7575.142,9.370894
7577.07,9.365829
7578.999,9.3655
7580.927,9.36886
7582.855,9.376599
7584.784,9.379251
7586.713,9.372832
7588.642,9.36718
7590.57,9.365734
7592.498,9.363901
7594.427,9.362321
7596.355,9.362941
7598.284,9.368082
7600.212,9.369253
7602.141,9.361111
7604.069,9.350202
7605.998,9.350085
7607.926,9.351473
7609.854,9.348459
7611.783,9.357241
7613.712,9.355565
7615.641,9.349933
7617.569,9.349837
7619.497,9.34616
7621.426,9.343152
7623.354,9.345325
7625.283,9.349087
7627.211,9.341473
7629.14,9.341961
7631.068,9.343323
7632.997,9.342587
7634.925,9.342976
7636.854,9.336096
7638.782,9.329367
7640.711,9.330067
7642.639,9.329555
7644.568,9.326861
7646.496,9.323574
7648.425,9.325212
7650.354,9.328551
7652.282,9.323714
7654.21,9.31678
7656.139,9.311298
7658.067,9.306
7659.996,9.313356
7661.924,9.312607
7663.853,9.30335
7665.781,9.3057
7667.71,9.304346
7669.638,9.299515
7671.566,9.294316
7673.495,9.286566
7675.424,9.288579
7677.353,9.284184
7679.281,9.276405
7681.209,9.282482
7683.138,9.278813
7685.066,9.270779
7686.995,9.272278
7688.923,9.265704
7690.852,9.261348
7692.78,9.264096
7694.709,9.258861
7696.637,9.244611
7698.565,9.237823
7700.494,9.239257
7702.423,9.239379
7704.352,9.229671
7706.28,9.221076
7708.208,9.222087
7710.137,9.220752
7712.065,9.2193
7713.994,9.208153
7715.922,9.203361
7717.851,9.201007
7719.779,9.201088
7721.708,9.196228
7723.636,9.190338
7725.564,9.190603
7727.493,9.184822
7729.422,9.175176
7731.35,9.171672
7733.279,9.165205
7735.207,9.156833
7737.136,9.160003
7739.064,9.15618
7740.993,9.148636
7742.921,9.148978
7744.85,9.14713
7746.778,9.139853
7748.707,9.127419
7750.635,9.123869
7752.563,9.122573
7754.492,9.12335
7756.421,9.121004
7758.349,9.105212
7760.277,9.097823
7762.206,9.096834
7764.135,9.094932
7766.063,9.090034
7767.992,9.090028
7769.92,9.083092
7771.849,9.070568
7773.777,9.062081
7775.706,9.055069
7777.634,9.048807
7779.563,9.047851
7781.491,9.044816
7783.42,9.042661
7785.348,9.034705
7787.276,9.024761
7789.205,9.020921
7791.134,9.013108
7793.063,9.009131
7794.991,9.012524
7796.919,9.00625
7798.848,8.998332
7800.776,8.99592
7802.705,8.992896
7804.633,8.980172
7806.562,8.966065
7808.49,8.965773
7810.419,8.961036
7812.347,8.952952
7814.275,8.937764
7816.204,8.9307
7818.133,8.927395
7820.061,8.921008
7821.989,8.910223
7823.918,8.896474
7825.847,8.889909
7827.775,8.885359
7829.704,8.874945
7831.632,8.861915
7833.561,8.857306
7835.489,8.850824
7837.417,8.836305
7839.346,8.825032
7841.274,8.818485
7843.203,8.805712
7845.132,8.786373
7847.06,8.774014
7848.988,8.770385
7850.917,8.766914
7852.846,8.751747
7854.774,8.728762
7856.703,8.723478
7858.631,8.716217
7860.56,8.705059
7862.488,8.699167
7864.417,8.688607
7866.345,8.675619
7868.273,8.659781
7870.202,8.653818
7872.131,8.641714
7874.059,8.638915
7875.987,8.630691
7877.916,8.611948
7879.845,8.604136
7881.773,8.594835
7883.702,8.579263
7885.63,8.564315
7887.559,8.55126
7889.487,8.538973
7891.416,8.530343
7893.344,8.516321
7895.272,8.501521
7897.201,8.489636
7899.13,8.46922
7901.058,8.455738
7902.986,8.444356
7904.915,8.438894
7906.844,8.415905
7908.772,8.400991
7910.7,8.387242
7912.629,8.371426
7914.558,8.355601
7916.486,8.346919
7918.415,8.329151
7920.343,8.307595
7922.271,8.293368
7924.2,8.275014
7926.128,8.256781
7928.057,8.242004
7929.985,8.223239
7931.914,8.19903
7933.843,8.179841
7935.771,8.163393
7937.699,8.144342
7939.628,8.123005
7941.557,8.104012
7943.485,8.091016
7945.414,8.073523
7947.342,8.051842
7949.271,8.030761
7951.199,8.020018
7953.127,8.002594
7955.056,7.978942
7956.984,7.961924
7958.913,7.946265
7960.842,7.932965
7962.77,7.919852
7964.698,7.897969
7966.627,7.878773
7968.556,7.863579
7970.484,7.838935
7972.413,7.818301
7974.341,7.806934
7976.27,7.798967
7978.198,7.777661
7980.126,7.756559
7982.055,7.745009
7983.983,7.727375
7985.912,7.704133
7987.841,7.674262
7989.769,7.659986
7991.697,7.652025
7993.626,7.629404
7995.555,7.605456
7997.483,7.583384
7999.411,7.569237
8001.34,7.557558
8003.269,7.530953
8005.197,7.503476
8007.125,7.486593
8009.054,7.465459
8010.982,7.442177
8012.911,7.416228
8014.839,7.387818
8016.768,7.369269
8018.696,7.352466
8020.625,7.328898
8022.554,7.301383
8024.482,7.276768
8026.41,7.252014
8028.339,7.228722
8030.268,7.207047
8032.196,7.18748
8034.125,7.165416
8036.053,7.138113
8037.981,7.095235
8039.91,7.078638
8041.838,7.068091
8043.767,7.046256
8045.695,7.026531
8047.624,6.996868
8049.553,6.971
8051.481,6.943053
8053.409,6.909259
8055.338,6.882406
8057.267,6.863489
8059.195,6.830277
8061.124,6.804068
8063.052,6.780776
8064.98,6.746286
8066.909,6.722845
8068.837,6.702447
8070.766,6.666913
8072.694,6.635448
8074.623,6.615075
8076.552,6.584906
8078.48,6.559764
8080.408,6.534697
8082.337,6.501662
8084.266,6.469893
8086.194,6.444746
8088.122,6.41461
8090.051,6.39111
8091.979,6.359864
8093.908,6.319854
8095.836,6.292137
8097.765,6.254261
8099.693,6.215485
8101.622,6.194674
8103.551,6.168879
8105.479,6.140817
8107.407,6.10487
8109.336,6.06525
8111.265,6.026771
8113.192,5.997811
8115.121,5.972254
8117.05,5.937934
8118.979,5.908683
8120.907,5.875888
8122.835,5.84085
8124.764,5.811175
8126.692,5.771241
8128.621,5.735475
8130.55,5.707942
8132.478,5.679866
8134.406,5.642552
8136.335,5.610419
8138.264,5.589165
8140.191,5.560212
8142.12,5.52991
8144.049,5.490724
8145.978,5.456323
8147.906,5.422842
8149.834,5.386217
8151.763,5.358777
8153.691,5.331334
8155.62,5.294088
8157.548,5.257402
8159.477,5.229051
8161.405,5.199337
8163.334,5.163924
8165.263,5.134576
8167.19,5.110404
8169.119,5.081106
8171.048,5.043603
8172.977,5.021877
8174.905,5.00193
8176.833,4.979701
8178.762,4.953723
8180.69,4.930591
8182.619,4.902915
8184.547,4.871202
8186.476,4.853097
8188.404,4.826847
8190.333,4.804192
8192.262,4.777685
8194.189,4.752323
8196.118,4.733015
8198.047,4.717394
8199.976,4.703527
8201.903,4.693459
8203.832,4.669951
8205.761,4.644053
8207.689,4.624885
8209.618,4.614645
8211.546,4.599562
8213.475,4.576974
8215.403,4.563722
8217.332,4.551131
8219.261,4.538013
8221.188,4.529309
8223.117,4.519855
8225.046,4.49809
8226.975,4.485364
8228.902,4.476508
8230.831,4.474626
8232.76,4.468026
8234.688,4.456547
8236.617,4.450529
8238.545,4.454552
8240.474,4.453738
8242.402,4.447517
8244.331,4.445496
8246.259,4.442162
8248.188,4.445308
8250.116,4.45679
8252.045,4.46598
8253.974,4.462497
8255.901,4.460119
8257.83,4.467096
8259.759,4.472214
8261.688,4.489912
8263.616,4.50675
8265.544,4.510852
8267.473,4.51928
8269.401,4.530145
8271.33,4.551783
8273.258,4.566885
8275.187,4.57233
8277.115,4.579542
8279.044,4.577935
8280.973,4.584167
8282.9,4.605714
8284.829,4.61793
8286.758,4.61483
8288.687,4.618463
8290.614,4.623797
8292.543,4.630865
8294.472,4.626988
8296.4,4.626612
8298.329,4.626145
8300.257,4.621567
8302.186,4.61433
8304.114,4.603941
8306.043,4.606149
8307.972,4.601164
8309.899,4.589096
8311.828,4.573156
8313.757,4.552416
8315.686,4.5477
8317.613,4.544493
8319.542,4.520855
8321.471,4.506524
8323.399,4.502302
8325.328,4.498775
8327.256,4.479535
8329.185,4.463902
8331.113,4.451693
8333.042,4.440409
8334.97,4.448857
8336.898,4.450369
8338.827,4.435898
8340.756,4.432616
8342.685,4.434486
8344.612,4.43319
8346.541,4.426243
8348.47,4.428096
8350.398,4.431019
8352.327,4.426713
8354.255,4.413354
8356.184,4.399819
8358.112,4.391242
8360.041,4.381099
8361.969,4.364003
8363.897,4.347366
8365.826,4.332138
8367.755,4.316296
8369.684,4.298647
8371.611,4.282721
8373.54,4.268706
8375.469,4.255622
8377.397,4.254531
8379.325,4.241977
8381.254,4.222943
8383.183,4.215466
8385.111,4.204619
8387.04,4.204331
8388.968,4.208415
8390.896,4.212965
8392.825,4.218877
8394.754,4.220997
8396.683,4.223243
8398.61,4.237419
8400.539,4.255833
8402.468,4.268092
8404.396,4.280252
8406.324,4.302008
8408.253,4.331215
8410.182,4.347362
8412.11,4.363664
8414.039,4.394081
8415.967,4.419872
8417.896,4.437171
8419.824,4.445211
8421.753,4.466312
8423.681,4.502177
8425.609,4.53917
8427.538,4.572224
8429.467,4.594525
8431.396,4.617895
8433.323,4.650479
8435.252,4.693942
8437.181,4.723094
8439.109,4.746297
8441.037,4.789028
8442.966,4.836025
8444.895,4.870282
8446.823,4.895191
8448.752,4.93672
8450.68,4.98608
8452.608,5.025017
8454.537,5.061182
8456.466,5.09788
8458.395,5.14655
8460.322,5.192315
8462.251,5.221531
8464.18,5.256553
8466.108,5.290777
8468.036,5.326927
8469.965,5.368122
8471.894,5.400961
8473.822,5.438687
8475.751,5.475611
8477.679,5.498424
8479.607,5.508388
8481.536,5.527631
8483.465,5.5547
8485.393,5.566513
8487.321,5.582608
8489.25,5.601472
8491.179,5.609334
8493.107,5.614425
8495.035,5.624423
8496.964,5.638699
8498.893,5.639734
8500.821,5.652915
8502.75,5.680062
8504.678,5.68595
8506.606,5.691409
8508.535,5.710862
8510.464,5.725206
8512.392,5.739787
8514.32,5.753901
8516.249,5.768353
8518.178,5.792345
8520.106,5.821512
8522.034,5.836602
8523.963,5.858349
8525.892,5.88929
8527.82,5.920982
8529.748,5.949435
8531.677,5.956409
8533.605,5.973229
8535.534,6.00852
8537.463,6.044842
8539.391,6.055076
8541.319,6.07425
8543.248,6.099833
8545.177,6.122457
8547.105,6.149637
8549.033,6.172668
8550.962,6.199676
8552.891,6.222499
8554.819,6.261665
8556.747,6.29824
8558.676,6.333897
8560.604,6.364571
8562.533,6.383535
8564.462,6.404273
8566.39,6.440166
8568.318,6.487456
8570.247,6.50941
8572.176,6.524708
8574.104,6.556925
8576.032,6.591328
8577.961,6.638481
8579.89,6.6709
8581.818,6.698088
8583.746,6.721805
8585.675,6.745896
8587.604,6.768979
8589.532,6.797784
8591.461,6.826025
8593.389,6.8437
8595.317,6.869577
8597.246,6.909805
8599.175,6.948619
8601.103,6.979137
8603.031,7.003787
8604.96,7.036936
8606.889,7.07916
8608.817,7.115179
8610.745,7.148559
8612.674,7.164542
8614.603,7.188191
8616.531,7.206477
8618.459,7.2267
8620.388,7.23802
8622.316,7.237663
8624.245,7.241504
8626.174,7.240605
8628.102,7.219207
8630.03,7.183769
8631.959,7.155533
8633.888,7.136383
8635.816,7.116296
8637.744,7.095435
8639.673,7.067882
8641.602,7.051022
8643.53,7.042557
8645.458,7.030696
8647.387,7.025421
8649.315,7.014738
8651.244,7.012634
8653.173,7.013013
8655.101,7.009249
8657.029,7.026698
8658.958,7.031403
8660.887,7.037292
8662.814,7.053005
8664.743,7.049232
8666.672,7.041366
8668.601,7.058707
8670.529,7.07601
8672.457,7.084698
8674.386,7.097006
8676.314,7.107126
8678.243,7.114282
8680.172,7.122061
8682.1,7.135065
8684.028,7.161152
8685.957,7.18277
8687.886,7.210509
8689.813,7.246568
8691.742,7.28296
8693.671,7.322964
8695.6,7.381961
8697.528,7.429577
8699.456,7.4728
8701.385,7.527439
8703.313,7.59063
8705.242,7.640018
8707.17,7.704552
8709.099,7.771953
8711.027,7.827703
8712.956,7.873273
8714.885,7.94141
8716.813,8.01475
8718.741,8.072546
8720.67,8.121118
8722.599,8.175127
8724.527,8.227534
8726.455,8.281373
8728.384,8.323316
8730.313,8.371807
8732.241,8.410908
8734.169,8.453477
8736.098,8.490864
8738.026,8.528467
8739.955,8.564116
8741.884,8.610496
8743.812,8.648208
8745.74,8.693012
8747.669,8.737186
8749.598,8.763452
8751.525,8.799351
8753.454,8.845719
8755.383,8.882559
8757.312,8.918485
8759.24,8.960627
8761.168,8.999701
8763.097,9.038174
8765.025,9.085736
8766.954,9.129405
8768.882,9.152107
8770.811,9.19127
8772.739,9.235631
8774.668,9.26707
8776.597,9.297151
8778.524,9.328555
8780.453,9.363811
8782.382,9.412106
8784.311,9.447073
8786.239,9.473857
8788.167,9.511135
8790.096,9.552211
8792.024,9.583263
8793.953,9.602127
8795.881,9.633836
8797.81,9.658174
8799.738,9.68457
8801.667,9.715777
8803.596,9.743881
8805.523,9.768764
8807.452,9.798182
8809.381,9.814771
8811.31,9.83479
8813.237,9.847276
8815.166,9.86903
8817.095,9.886577
8819.023,9.890797
8820.952,9.905348
8822.88,9.924879
8824.809,9.936116
8826.737,9.944427
8828.666,9.948359
8830.595,9.950365
8832.522,9.973369
8834.451,9.986668
8836.38,9.985271
8838.309,9.989929
8840.236,10.02069
8842.165,10.04607
8844.094,10.05076
8846.022,10.04843
8847.951,10.05211
8849.879,10.07307
8851.808,10.10551
8853.736,10.13022
8855.665,10.14934
8857.593,10.15627
8859.521,10.15124
8861.45,10.1602
8863.379,10.16907
8865.308,10.19238
8867.235,10.21521
8869.164,10.22957
8871.093,10.23528
8873.021,10.22028
8874.95,10.22817
8876.878,10.24992
8878.807,10.25617
8880.735,10.25093
8882.664,10.26287
8884.592,10.27781
8886.521,10.26378
8888.449,10.26727
8890.378,10.2714
8892.307,10.27862
8894.234,10.28113
8896.163,10.29382
8898.092,10.30144
8900.021,10.3011
8901.948,10.29927
8903.877,10.29972
8905.806,10.32438
8907.734,10.34312
8909.663,10.33365
8911.591,10.3152
8913.52,10.32122
8915.448,10.33055
8917.377,10.34092
8919.306,10.35358
8921.233,10.36464
8923.162,10.36433
8925.091,10.36867
8927.02,10.37553
8928.947,10.38051
8930.876,10.3718
8932.805,10.37278
8934.733,10.38029
8936.662,10.38872
8938.59,10.38548
8940.519,10.39438
8942.447,10.40423
8944.376,10.40037
8946.304,10.40388
8948.232,10.40503
8950.161,10.40318
8952.09,10.40987
8954.019,10.42309
8955.946,10.43218
8957.875,10.42386
8959.804,10.42955
8961.732,10.44114
8963.661,10.43932
8965.589,10.44584
8967.518,10.44555
8969.446,10.45344
8971.375,10.4576
8973.303,10.45819
8975.231,10.45477
8977.16,10.46028
8979.089,10.46807
8981.018,10.481
8982.945,10.47699
8984.874,10.47172
8986.803,10.47262
8988.731,10.47134
8990.659,10.47969
8992.588,10.48212
8994.517,10.49736
8996.445,10.50876
8998.374,10.50123
9000.302,10.49397
9002.23,10.49725
9004.159,10.50304
9006.088,10.49974
9008.017,10.51143
9009.944,10.50525
9011.873,10.51112
9013.802,10.5261
9015.73,10.51756
9017.658,10.51725
9019.587,10.52521
9021.516,10.50553
9023.444,10.50654
9025.373,10.52953
9027.301,10.54017
9029.229,10.54069
9031.158,10.52898
9033.087,10.53298
9035.015,10.53308
9036.943,10.53614
9038.872,10.52986
9040.801,10.53089
9042.729,10.53769
9044.657,10.54076
9046.586,10.54251
9048.515,10.53939
9050.443,10.5332
9052.372,10.54037
9054.3,10.54333
9056.229,10.53578
9058.157,10.53805
9060.086,10.54807
9062.014,10.5577
9063.942,10.55723
9065.871,10.55363
9067.8,10.56478
9069.729,10.56646
9071.656,10.55412
9073.585,10.55464
9075.514,10.56378
9077.442,10.55412
9079.37,10.54551
9081.299,10.5594
9083.228,10.56865
9085.156,10.57205
9087.085,10.5662
9089.013,10.56499
9090.941,10.56113
9092.87,10.55563
9094.799,10.55832
9096.727,10.56942
9098.655,10.56777
9100.584,10.56698
9102.513,10.56598
9104.441,10.56671
9106.369,10.57111
9108.298,10.57531
9110.227,10.56307
9112.155,10.55973
9114.084,10.56889
9116.012,10.57854
9117.94,10.56509
9119.869,10.55414
9121.798,10.55961
9123.726,10.566
9125.654,10.5688
9127.583,10.57013
9129.512,10.56772
9131.44,10.56636
9133.368,10.56695
9135.297,10.55719
9137.226,10.56268
9139.154,10.55854
9141.082,10.54347
9143.011,10.54581
9144.939,10.54388
9146.868,10.55472
9148.797,10.56594
9150.725,10.56124
9152.653,10.54661
9154.582,10.55217
9156.511,10.54927
9158.439,10.55445
9160.367,10.56592
9162.296,10.56046
9164.225,10.54494
9166.153,10.53142
9168.081,10.53555
9170.01,10.54409
9171.938,10.54489
9173.867,10.5465
9175.796,10.53575
9177.724,10.53461
9179.652,10.53932
9181.581,10.54565
9183.51,10.54802
9185.438,10.52413
9187.366,10.50957
9189.295,10.51701
9191.224,10.51216
9193.152,10.50008
9195.08,10.48187
9197.009,10.4797
9198.938,10.4962
9200.866,10.49651
9202.795,10.49276
9204.723,10.49247
9206.651,10.48074
9208.58,10.46845
9210.509,10.47895
9212.437,10.48927
9214.365,10.48689
9216.294,10.47661
9218.223,10.45763
9220.151,10.46037
9222.079,10.47078
9224.008,10.4576
9225.937,10.44834
9227.865,10.47253
9229.793,10.4573
9231.722,10.43419
9233.65,10.44499
9235.579,10.44538
9237.508,10.44096
9239.436,10.44101
9241.364,10.44257
9243.293,10.43958
9245.222,10.42686
9247.15,10.42464
9249.078,10.43565
9251.007,10.42892
9252.936,10.42099
9254.864,10.43107
9256.792,10.43161
9258.721,10.42206
9260.649,10.41854
9262.578,10.41655
9264.507,10.41037
9266.435,10.42325
9268.363,10.42224
9270.292,10.41041
9272.221,10.40524
9274.148,10.39185
9276.077,10.38756
9278.006,10.38636
9279.935,10.37803
9281.863,10.37637
9283.791,10.38923
9285.72,10.38118
9287.648,10.36426
9289.577,10.35184
9291.506,10.36295
9293.434,10.37266
9295.362,10.36905
9297.291,10.38081
9299.22,10.35759
9301.147,10.34326
9303.076,10.33177
9305.005,10.33961
9306.934,10.33391
9308.862,10.32101
9310.79,10.32387
9312.719,10.32994
9314.647,10.32537
9316.576,10.31941
9318.504,10.31197
9320.433,10.29871
9322.361,10.29349
9324.29,10.30464
9326.219,10.30648
9328.146,10.2958
9330.075,10.29752
9332.004,10.30537
9333.933,10.29008
9335.861,10.27566
9337.789,10.25786
9339.718,10.25158
9341.646,10.25023
9343.575,10.25852
9345.503,10.26813
9347.432,10.27927
9349.36,10.28779
9351.289,10.27689
9353.218,10.26415
9355.146,10.27722
9357.074,10.27696
9359.003,10.26441
9360.932,10.25808
9362.859,10.25344
9364.788,10.25576
9366.717,10.25763
9368.646,10.24608
9370.574,10.23449
9372.502,10.25576
9374.431,10.25164
9376.359,10.24176
9378.288,10.24629
9380.217,10.24491
9382.145,10.24591
9384.073,10.24106
9386.002,10.23691
9387.931,10.25179
9389.858,10.25145
9391.787,10.23057
9393.716,10.2241
9395.645,10.23804
9397.573,10.24053
9399.501,10.23657
9401.43,10.23892
9403.358,10.23041
9405.287,10.23162
9407.215,10.23603
9409.144,10.2235
9411.072,10.22449
9413.001,10.22508
9414.93,10.24224
9416.857,10.23688
9418.786,10.22046
9420.715,10.21558
9422.644,10.21566
9424.571,10.21733
9426.5,10.21925
9428.429,10.2266
9430.357,10.21676
9432.286,10.21084
9434.214,10.22854
9436.143,10.23864
9438.071,10.22327
9440.0,10.21905
9441.929,10.21315
9443.856,10.21484
9445.785,10.21639
9447.714,10.21187
9449.643,10.22471
9451.57,10.21285
9453.499,10.20301
9455.428,10.19794
9457.356,10.20936
9459.285,10.21703
9461.213,10.17978
9463.142,10.16061
9465.07,10.16862
9466.999,10.16908
9468.927,10.16618
9470.855,10.16015
9472.784,10.17724
9474.713,10.17691
9476.642,10.16882
9478.569,10.16983
9480.498,10.17418
9482.427,10.1692
9484.355,10.17304
9486.284,10.16239
9488.212,10.15932
9490.141,10.17098
9492.069,10.16618
9493.998,10.15697
9495.926,10.14395
9497.854,10.14216
9499.783,10.14229
9501.712,10.14118
9503.641,10.11467
9505.568,10.10655
9507.497,10.14465
9509.426,10.15538
9511.354,10.13162
9513.282,10.13115
9515.211,10.13974
9517.14,10.13559
9519.068,10.12792
9520.997,10.12097
9522.925,10.11167
9524.854,10.11681
9526.782,10.13891
9528.711,10.14493
9530.64,10.12774
9532.567,10.11831
9534.496,10.10772
9536.425,10.12045
9538.354,10.13329
9540.281,10.13476
9542.21,10.1068
9544.139,10.09227
9546.067,10.09201
9547.996,10.09861
9549.924,10.11476
9551.853,10.11434
9553.781,10.11451
9555.71,10.12309
9557.638,10.10792
9559.566,10.11477
9561.495,10.11981
9563.424,10.11488
9565.353,10.12178
9567.28,10.13467
9569.209,10.12558
9571.138,10.1311
9573.066,10.14228
9574.995,10.1362
9576.923,10.12483
9578.852,10.13104
9580.78,10.14582
9582.709,10.14058
9584.637,10.13385
9586.565,10.14341
9588.494,10.14171
9590.423,10.15524
9592.352,10.15062
9594.279,10.14004
9596.208,10.13884
9598.137,10.14942
9600.065,10.13616
9601.993,10.13811
9603.922,10.14675
9605.851,10.1435
9607.779,10.14099
9609.708,10.15664
9611.636,10.15889
9613.564,10.14725
9615.493,10.13987
9617.422,10.14869
9619.351,10.14295
9621.278,10.13736
9623.207,10.1445
9625.136,10.14329
9627.064,10.15543
9628.992,10.16081
9630.921,10.16577
9632.85,10.1604
9634.778,10.12798
9636.707,10.1188
9638.635,10.11641
9640.563,10.13286
9642.492,10.13292
9644.421,10.12308
9646.349,10.12055
9648.277,10.12079
9650.206,10.13127
9652.135,10.11078
9654.063,10.0982
9655.991,10.12404
9657.92,10.13226
9659.849,10.13226
9661.777,10.11476
9663.706,10.10397
9665.634,10.11144
9667.563,10.10489
9669.491,10.08464
9671.42,10.07331
9673.348,10.08007
9675.276,10.09867
9677.205,10.10925
9679.134,10.11633
9681.063,10.10924
9682.99,10.09738
9684.919,10.09591
9686.848,10.06388
9688.776,10.06701
9690.704,10.08299
9692.633,10.07848
9694.562,10.07819
9696.49,10.10224
9698.419,10.1101
9700.347,10.09593
9702.275,10.09893
9704.204,10.10523
9706.133,10.08249
9708.062,10.07576
9709.989,10.07467
9711.918,10.07429
9713.847,10.07242
9715.775,10.06794
9717.703,10.05637
9719.632,10.06183
9721.561,10.06179
9723.489,10.05721
9725.418,10.06071
9727.346,10.06528
9729.274,10.0764
9731.203,10.06895
9733.132,10.03709
9735.06,10.0413
9736.988,10.04232
9738.917,10.04025
9740.846,10.04123
9742.774,10.02492
9744.702,10.02338
9746.631,10.0366
9748.56,10.02374
9750.488,10.00962
9752.416,10.01432
9754.345,9.998147
9756.273,10.01232
9758.202,10.02614
9760.131,10.01385
9762.059,10.00815
9763.987,10.00551
9765.916,9.993955
9767.845,9.998029
9769.773,10.00335
9771.701,10.01258
9773.63,10.00714
9775.559,9.98082
9777.487,9.972621
9779.415,9.971504
9781.344,9.967257
9783.272,9.960007
9785.201,9.959547
9787.13,9.975708
9789.058,9.964229
9790.986,9.946999
9792.915,9.945795
9794.844,9.939466
9796.771,9.948704
9798.7,9.952414
9800.629,9.948463
9802.558,9.942867
9804.486,9.941443
9806.414,9.960469
9808.343,9.980499
9810.271,9.967235
9812.2,9.959783
9814.129,9.942931
9816.057,9.967827
9817.985,9.981753
9819.914,9.96475
9821.843,9.977933
9823.771,9.976328
9825.699,9.973303
9827.628,9.981228
9829.557,9.977667
9831.485,9.988027
9833.413,10.01367
9835.342,10.00464
9837.271,9.996799
9839.199,10.01664
9841.127,10.02362
9843.056,10.02376
9844.984,10.06409
9846.913,10.07572
9848.842,10.07272
9850.77,10.06811
9852.698,10.08061
9854.627,10.09558
9856.556,10.09542
9858.484,10.09513
9860.412,10.10356
9862.341,10.10957
9864.27,10.09903
9866.198,10.1099
9868.126,10.12312
9870.055,10.1557
9871.983,10.16498
9873.912,10.16307
9875.841,10.17027
9877.769,10.17074
9879.697,10.16205
9881.626,10.17833
9883.555,10.20602
9885.482,10.19586
9887.411,10.19664
9889.34,10.19589
9891.269,10.22823
9893.197,10.25567
9895.125,10.22118
9897.054,10.21427
9898.982,10.24774
9900.911,10.2697
9902.84,10.2875
9904.768,10.28903
9906.696,10.28431
9908.625,10.30067
9910.554,10.30751
9912.481,10.31491
9914.41,10.31369
9916.339,10.30908
9918.268,10.30689
9920.196,10.31984
9922.124,10.32989
9924.053,10.32614
9925.981,10.34094
9927.91,10.35547
9929.838,10.35348
9931.767,10.35404
9933.695,10.38203
9935.624,10.39862
9937.553,10.39804
9939.48,10.39598
9941.409,10.41172
9943.338,10.41843
9945.267,10.39171
9947.195,10.40392
9949.123,10.42057
9951.052,10.41427
9952.98,10.42991
9954.909,10.44004
9956.837,10.44383
9958.766,10.45484
9960.694,10.46935
9962.623,10.462
9964.552,10.47294
9966.479,10.47515
9968.408,10.47941
9970.337,10.48186
9972.266,10.46994
9974.193,10.48898
9976.122,10.49618
9978.051,10.49373
9979.979,10.49242
9981.908,10.50159
9983.836,10.50699
9985.765,10.52429
9987.693,10.47884
9989.622,10.4656
9991.551,10.49994
9993.479,10.49941
9995.407,10.48379
9997.336,10.49718
9999.265,10.47945
10001.19,10.49247
10003.12,10.52088
10005.05,10.53329
10006.98,10.53404
10008.91,10.53289
10010.83,10.54475
10012.76,10.54287
10014.69,10.53857
10016.62,10.55349
10018.55,10.5489
10020.48,10.57646
10022.41,10.58217
10024.33,10.55058
10026.26,10.54298
10028.19,10.56518
10030.12,10.60063
10032.05,10.60886
10033.98,10.62553
10035.91,10.64403
10037.83,10.64093
10039.76,10.63955
10041.69,10.65871
10043.62,10.67782
10045.55,10.67405
10047.48,10.6727
10049.41,10.70258
10051.33,10.71814
10053.26,10.68966
10055.19,10.70756
10057.12,10.72941
10059.05,10.69997
10060.98,10.69753
10062.9,10.74722
10064.83,10.77182
10066.76,10.75994
10068.69,10.72837
10070.62,10.72636
10072.55,10.73896
10074.48,10.73628
10076.4,10.73554
10078.33,10.74916
10080.26,10.76586
10082.19,10.7555
10084.12,10.78395
10086.05,10.79031
10087.98,10.79771
10089.9,10.80697
10091.83,10.804
10093.76,10.80676
10095.69,10.81837
10097.62,10.81489
10099.55,10.81242
10101.47,10.82156
10103.4,10.82065
10105.33,10.80945
10107.26,10.79416
10109.19,10.79405
10111.12,10.82346
10113.05,10.83422
10114.97,10.81626
10116.9,10.8165
10118.83,10.81771
10120.76,10.87077
10122.69,10.88515
10124.62,10.88003
10126.54,10.87507
10128.47,10.89169
10130.4,10.9144
10132.33,10.87849
10134.26,10.86447
10136.19,10.89635
10138.12,10.90073
10140.04,10.86987
10141.97,10.90676
10143.9,10.91826
10145.83,10.9307
10147.76,10.93258
10149.69,10.9177
10151.62,10.89938
10153.54,10.92495
10155.47,10.92342
10157.4,10.91081
10159.33,10.93117
10161.26,10.93622
10163.19,10.93972
10165.12,10.92877
10167.04,10.91601
10168.97,10.92538
10170.9,10.93693
10172.83,10.92692
10174.76,10.92666
10176.69,10.93589
10178.61,10.97792
10180.54,10.9631
10182.47,10.93593
10184.4,10.93665
10186.33,10.94949
10188.26,10.9632
10190.19,10.954
10192.11,10.95079
10194.04,10.94052
10195.97,10.95254
10197.9,10.94475
10199.83,10.93097
10201.76,10.94842
10203.69,10.98608
10205.61,10.98706
10207.54,10.96939
10209.47,10.94708
10211.4,10.967
10213.33,11.01752
10215.26,11.00503
10217.18,10.96293
10219.11,10.98868
10221.04,11.02446
10222.97,11.01378
10224.9,11.00974
10226.83,11.02353
10228.76,11.02692
10230.68,11.02135
10232.61,10.98396
10234.54,10.96409
10236.47,10.98213
10238.4,10.97586
10240.33,10.97349
10242.25,10.99028
10244.18,11.03066
10246.11,11.03681
10248.04,11.02497
10249.97,11.01634
10251.9,11.05035
10253.83,11.0577
10255.75,11.05159
10257.68,11.03085
10259.61,11.01135
10261.54,11.04211
10263.47,11.08234
10265.4,11.06737
10267.33,11.02101
10269.25,11.0104
10271.18,11.03773
10273.11,11.0392
10275.04,11.01659
10276.97,11.01312
10278.9,11.01513
10280.83,11.01348
10282.75,11.01452
10284.68,10.99848
10286.61,10.98961
10288.54,11.02729
10290.47,11.04837
10292.4,11.01782
10294.32,10.9945
10296.25,10.99556
10298.18,11.03252
10300.11,11.03815
10302.04,11.04518
10303.97,11.04279
10305.9,11.0335
10307.82,11.03367
10309.75,11.03255
10311.68,11.02748
10313.61,11.03141
10315.54,11.00239
10317.47,11.0002
10319.4,11.02284
10321.32,11.03613
10323.25,11.05328
10325.18,11.04722
10327.11,11.03252
10329.04,11.0172
10330.97,11.03866
10332.89,11.01142
10334.82,10.97942
10336.75,10.98857
10338.68,11.00646
10340.61,11.01527
10342.54,11.01591
10344.47,10.98331
10346.39,10.98652
10348.32,11.00762
10350.25,11.01317
10352.18,11.0187
10354.11,11.00033
10356.04,11.00285
10357.96,10.97781
10359.89,10.94407
10361.82,10.98282
10363.75,11.02655
10365.68,10.99077
10367.61,10.97895
10369.54,10.98073
10371.46,11.00784
10373.39,11.02297
10375.32,10.98666
10377.25,10.92994
10379.18,10.95433
10381.11,10.98249
10383.04,10.99898
10384.96,10.9848
10386.89,10.9895
10388.82,11.00014
10390.75,10.98081
10392.68,10.94766
10394.61,10.96297
10396.54,10.96716
10398.46,10.94615
10400.39,10.94262
10402.32,10.93733
10404.25,10.96146
10406.18,10.98161
10408.11,10.98368
10410.03,10.95806
10411.96,10.93322
10413.89,10.97491
10415.82,10.99903
10417.75,10.95726
10419.68,10.94113
10421.61,10.98458
10423.53,10.99426
10425.46,10.96292
10427.39,10.92715
10429.32,10.8964
10431.25,10.87992
10433.18,10.88599
10435.1,10.88717
10437.03,10.87654
10438.96,10.88563
10440.89,10.90442
10442.82,10.8791
10444.75,10.87132
10446.68,10.91482
10448.6,10.90869
10450.53,10.88168
10452.46,10.89769
10454.39,10.90966
10456.32,10.89358
10458.25,10.92053
10460.18,10.93803
10462.1,10.89795
10464.03,10.88021
10465.96,10.87506
10467.89,10.8884
10469.82,10.88289
10471.75,10.88324
10473.67,10.88043
10475.6,10.84077
10477.53,10.83608
10479.46,10.84125
10481.39,10.80081
10483.32,10.77696
10485.25,10.79926
10487.17,10.79181
10489.1,10.80105
10491.03,10.83788
10492.96,10.84738
10494.89,10.81241
10496.82,10.7683
10498.75,10.78251
10500.67,10.79552
10502.6,10.78498
10504.53,10.76413
10506.46,10.77283
10508.39,10.77707
10510.32,10.80194
10512.25,10.75436
10514.17,10.69294
10516.1,10.71326
10518.03,10.7319
10519.96,10.72323
10521.89,10.72172
10523.82,10.66761
10525.74,10.66145
10527.67,10.65042
10529.6,10.6441
10531.53,10.65012
10533.46,10.65644
10535.39,10.65833
10537.32,10.61283
10539.24,10.61719
10541.17,10.64489
10543.1,10.67565
10545.03,10.64772
10546.96,10.58864
10548.89,10.57613
10550.81,10.56456
10552.74,10.5825
10554.67,10.5591
10556.6,10.5068
10558.53,10.51382
10560.46,10.52326
10562.39,10.53756
10564.31,10.49872
10566.24,10.48823
10568.17,10.51905
10570.1,10.50797
10572.03,10.47418
10573.96,10.43016
10575.89,10.3836
10577.81,10.40504
10579.74,10.43058
10581.67,10.39483
10583.6,10.31763
10585.53,10.33855
10587.46,10.34387
10589.38,10.31449
10591.31,10.28884
10593.24,10.32319
10595.17,10.33167
10597.1,10.29823
10599.03,10.2797
10600.96,10.26782
10602.88,10.24752
10604.81,10.2236
10606.74,10.18177
10608.67,10.17104
10610.6,10.19289
10612.53,10.20729
10614.46,10.21011
10616.38,10.16211
10618.31,10.13059
10620.24,10.11121
10622.17,10.12295
10624.1,10.13115
10626.03,10.10879
10627.96,10.10955
10629.88,10.08155
10631.81,10.0637
10633.74,10.05079
10635.67,10.08551
10637.6,10.07166
10639.53,10.02348
10641.45,10.00139
10643.38,9.973602
10645.31,10.00771
10647.24,10.01682
10649.17,10.01072
10651.1,9.981861
10653.03,9.981594
10654.95,9.962533
10656.88,9.969206
10658.81,9.983364
10660.74,9.962945
10662.67,9.93236
10664.6,9.947472
10666.52,9.940481
10668.45,9.916035
10670.38,9.917673
10672.31,9.918077
10674.24,9.876699
10676.17,9.832995
10678.1,9.892237
10680.02,9.89992
10681.95,9.869419
10683.88,9.860553
10685.81,9.856823
10687.74,9.847272
10689.67,9.883736
10691.59,9.898175
10693.52,9.871983
10695.45,9.83937
10697.38,9.827126
10699.31,9.819067
10701.24,9.826151
10703.17,9.827798
10705.09,9.850676
10707.02,9.892325
10708.95,9.849542
10710.88,9.827294
10712.81,9.829264
10714.74,9.815327
10716.67,9.794419
10718.59,9.822944
10720.52,9.834691
10722.45,9.859066
10724.38,9.880821
10726.31,9.827724
10728.24,9.819956
10730.17,9.812786
10732.09,9.810195
10734.02,9.846805
10735.95,9.837542
10737.88,9.793448
10739.81,9.801178
10741.74,9.828061
10743.67,9.819143
10745.59,9.812244
10747.52,9.847554
10749.45,9.867946
10751.38,9.84942
10753.31,9.857701
10755.24,9.894121
10757.16,9.833582
10759.09,9.759053
10761.02,9.785726
10762.95,9.817724
10764.88,9.859981
10766.81,9.860265
10768.74,9.833719
10770.66,9.810524
10772.59,9.808386
10774.52,9.781309
10776.45,9.798362
10778.38,9.863341
10780.31,9.865363
10782.23,9.820272
10784.16,9.807638
10786.09,9.848463
10788.02,9.876686
10789.95,9.866585
10791.88,9.852039
10793.81,9.850297
10795.73,9.832985
10797.66,9.840627
10799.59,9.874928
10801.52,9.842917
10803.45,9.832529
10805.38,9.781148
10807.3,9.759254
10809.23,9.759973
10811.16,9.796293
10813.09,9.796441
10815.02,9.777933
10816.95,9.750439
10818.88,9.753117
10820.8,9.76325
10822.73,9.756562
10824.66,9.716025
10826.59,9.709228
10828.52,9.726097
10830.45,9.737545
10832.38,9.731449
10834.3,9.742861
10836.23,9.751967
10838.16,9.753219
10840.09,9.781437
10842.02,9.787435
10843.95,9.749304
10845.88,9.737366
10847.8,9.757367
10849.73,9.734692
10851.66,9.700588
10853.59,9.6947
10855.52,9.683456
10857.45,9.655852
10859.38,9.641212
10861.3,9.637792
10863.23,9.610121
10865.16,9.615784
10867.09,9.632056
10869.02,9.675562
10870.95,9.698467
10872.87,9.680007
10874.8,9.611736
10876.73,9.6143
10878.66,9.670726
10880.59,9.697146
10882.52,9.645657
10884.45,9.617908
10886.37,9.637618
10888.3,9.67027
10890.23,9.673101
10892.16,9.683181
10894.09,9.711964
10896.02,9.653736
10897.94,9.657235
10899.87,9.669659
10901.8,9.63984
10903.73,9.612824
10905.66,9.618294
10907.59,9.650779
10909.52,9.627398
10911.44,9.61968
10913.37,9.628886
10915.3,9.641776
10917.23,9.676777
10919.16,9.651081
10921.09,9.60029
10923.01,9.579851
10924.94,9.598881
10926.87,9.656219
10928.8,9.606588
10930.73,9.564195
10932.66,9.554282
10934.59,9.625669
10936.51,9.654401
10938.44,9.60922
10940.37,9.595074
10942.3,9.577079
10944.23,9.510084
10946.16,9.505042
10948.09,9.507496
10950.01,9.49914
10951.94,9.514416
10953.87,9.536081
10955.8,9.545093
10957.73,9.546857
10959.66,9.567582
10961.58,9.550324
10963.51,9.543001
10965.44,9.577259
10967.37,9.590088
10969.3,9.580767
10971.23,9.565263
10973.16,9.556813
10975.08,9.577823
10977.01,9.602515
10978.94,9.597325
10980.87,9.612176
10982.8,9.6387
10984.73,9.647203
10986.66,9.67087
10988.58,9.658025
10990.51,9.639867
10992.44,9.674442
10994.37,9.712295
10996.3,9.759431
10998.23,9.749078
11000.16,9.749073
11002.08,9.810628
11004.01,9.798723
11005.94,9.775827
11007.87,9.805734
11009.8,9.802251
11011.73,9.760689
11013.65,9.766505
11015.58,9.871828
11017.51,9.872908
11019.44,9.898985
11021.37,9.968994
11023.3,10.01797
11025.23,10.02492
11027.15,9.98687
11029.08,9.975367
11031.01,10.03718
11032.94,10.04413
11034.87,10.02736
11036.8,10.07431
11038.72,10.11304
11040.65,10.09235
11042.58,10.10145
11044.51,10.13417
11046.44,10.07555
11048.37,10.09588
11050.3,10.15216
11052.22,10.21325
11054.15,10.21671
11056.08,10.21303
11058.01,10.20572
11059.94,10.24992
11061.87,10.26142
11063.79,10.21823
11065.72,10.23493
11067.65,10.28201
11069.58,10.28719
11071.51,10.26736
11073.44,10.31958
11075.37,10.32229
11077.29,10.34199
11079.22,10.39158
11081.15,10.41235
11083.08,10.42496
11085.01,10.42934
11086.94,10.37789
11088.87,10.36405
11090.79,10.3965
11092.72,10.42054
11094.65,10.41141
11096.58,10.47688
11098.51,10.54422
11100.44,10.49365
11102.37,10.45998
11104.29,10.52219
11106.22,10.57753
11108.15,10.52846
11110.08,10.54092
11112.01,10.54949
11113.94,10.57933
11115.87,10.62654
11117.79,10.59138
11119.72,10.58837
11121.65,10.63082
11123.58,10.63969
11125.51,10.60644
11127.44,10.62331
11129.36,10.7093
11131.29,10.77629
11133.22,10.77321
11135.15,10.75113
11137.08,10.7383
11139.01,10.75508
11140.94,10.76657
11142.86,10.80594
11144.79,10.8392
11146.72,10.89945
11148.65,10.82465
11150.58,10.80926
11152.51,10.88319
11154.43,10.86921
11156.36,10.8279
11158.29,10.90758
11160.22,10.8703
11162.15,10.86194
11164.08,10.87383
11166.01,10.87898
11167.93,10.88885
11169.86,10.91999
11171.79,10.89862
11173.72,10.891
11175.65,10.86138
11177.58,10.94592
11179.5,10.95124
11181.43,10.87866
11183.36,10.89215
11185.29,10.91583
11187.22,10.94828
11189.15,10.96361
11191.08,10.97648
11193.0,10.9652
11194.93,10.94309
11196.86,10.97788
11198.79,10.97174
11200.72,10.97349
11202.65,10.95146
11204.58,10.97364
11206.5,11.00469
11208.43,11.01057
11210.36,10.98773
11212.29,11.02427
11214.22,11.03994
11216.15,11.03362
11218.08,11.01792
11220.0,10.96079
11221.93,11.05913
11223.86,11.15612
11225.79,11.12534
11227.72,11.09235
11229.65,11.12366
11231.58,11.16706
11233.5,11.06542
11235.43,11.03098
11237.36,11.05405
11239.29,11.08729
11241.22,11.0755
11243.15,11.03451
11245.07,10.9953
11247.0,11.02669
11248.93,11.06513
11250.86,11.09464
11252.79,11.09295
11254.72,11.09728
11256.65,11.07979
11258.57,11.11174
11260.5,11.13653
11262.43,11.11197
11264.36,11.0788
11266.29,11.07541
11268.22,11.15527
11270.14,11.16385
11272.07,11.16741
11274.0,11.15878
11275.93,11.13945
11277.86,11.12017
11279.79,11.09509
11281.72,11.10834
11283.64,11.11216
11285.57,11.09548
11287.5,11.03872
11289.43,11.02154
11291.36,11.05031
11293.29,11.06567
11295.21,11.11807
11297.14,11.08333
11299.07,11.02784
11301.0,11.03389
11302.93,11.11296
11304.86,11.12031
11306.79,11.14844
11308.71,11.19879
11310.64,11.23465
11312.57,11.26736
11314.5,11.19673
11316.43,11.1512
11318.36,11.09427
11320.29,11.14504
11322.21,11.19314
11324.14,11.17374
11326.07,11.16955
11328.0,11.27851
11329.93,11.31959
11331.86,11.27322
11333.79,11.28463
11335.71,11.27806
11337.64,11.2401
11339.57,11.19674
11341.5,11.25704
11343.43,11.30023
11345.36,11.25459
11347.28,11.21078
11349.21,11.27632
11351.14,11.32491
11353.07,11.21024
11355.0,11.22888
11356.93,11.2387
11358.86,11.21974
11360.78,11.18954
11362.71,11.23445
11364.64,11.36034
11366.57,11.35512
11368.5,11.27457
11370.43,11.28898
11372.36,11.27857
11374.28,11.22344
11376.21,11.20051
11378.14,11.23742
11380.07,11.28866
11382.0,11.24473
11383.93,11.2129
11385.85,11.32975
11387.78,11.36101
11389.71,11.3668
11391.64,11.3661
11393.57,11.35776
11395.5,11.2862
11397.43,11.28175
11399.35,11.29959
11401.28,11.31769
11403.21,11.27262
11405.14,11.35222
11407.07,11.45133
11409.0,11.37493
11410.92,11.26314
11412.85,11.28282
11414.78,11.30073
11416.71,11.21891
11418.64,11.26828
11420.57,11.41531
11422.5,11.43886
11424.42,11.41295
11426.35,11.34075
11428.28,11.36789
11430.21,11.42653
11432.14,11.45321
11434.07,11.45995
11436.0,11.40353
11437.92,11.3626
11439.85,11.44344
11441.78,11.4119
11443.71,11.39299
11445.64,11.38362
11447.57,11.33479
11449.5,11.3504
11451.42,11.4393
11453.35,11.5238
11455.28,11.43698
11457.21,11.4238
11459.14,11.41302
11461.07,11.41324
11462.99,11.40414
11464.92,11.43561
11466.85,11.49461
11468.78,11.48056
11470.71,11.45932
11472.64,11.39321
11474.57,11.38962
11476.49,11.43974
11478.42,11.38618
11480.35,11.3768
11482.28,11.42199
11484.21,11.48191
11486.14,11.40385
11488.07,11.35864
11489.99,11.38492
11491.92,11.38168
11493.85,11.39915
11495.78,11.43748
11497.71,11.46932
11499.64,11.45079
11501.56,11.47213
11503.49,11.42023
11505.42,11.37469
11507.35,11.41148
11509.28,11.3903
11511.21,11.32224
11513.14,11.43234
11515.06,11.46211
11516.99,11.43072
11518.92,11.50472
11520.85,11.54699
11522.78,11.53611
11524.71,11.46662
11526.63,11.50134
11528.56,11.51896
11530.49,11.5034
11532.42,11.56022
11534.35,11.53587
11536.28,11.53043
11538.21,11.46346
11540.13,11.43369
11542.06,11.45993
11543.99,11.49504
11545.92,11.48706
11547.85,11.47676
11549.78,11.50349
11551.71,11.53354
11553.63,11.52288
11555.56,11.49757
11557.49,11.48396
11559.42,11.52118
11561.35,11.58755
11563.28,11.5645
11565.21,11.49678
11567.13,11.55695
11569.06,11.55447
11570.99,11.56345
11572.92,11.51185
11574.85,11.53639
11576.78,11.49474
11578.7,11.53692
11580.63,11.58864
11582.56,11.51158
11584.49,11.39019
11586.42,11.46627
11588.35,11.57854
11590.28,11.60439
11592.2,11.58442
11594.13,11.49501
11596.06,11.52078
11597.99,11.59663
11599.92,11.59911
11601.85,11.5706
11603.78,11.52474
11605.7,11.5224
11607.63,11.54252
11609.56,11.62143
11611.49,11.70089
11613.42,11.58811
11615.35,11.50754
11617.27,11.60198
11619.2,11.67979
11621.13,11.69772
11623.06,11.66524
11624.99,11.64177
11626.92,11.63136
11628.85,11.65798
11630.77,11.53599
11632.7,11.55887
11634.63,11.73403
11636.56,11.67771
11638.49,11.65457
11640.42,11.63984
11642.34,11.65409
11644.27,11.69317
11646.2,11.61221
11648.13,11.63451
11650.06,11.59506
11651.99,11.58768
11653.92,11.6502
11655.84,11.64481
11657.77,11.6448
11659.7,11.5416
11661.63,11.555
11663.56,11.59795
11665.49,11.53535
11667.42,11.55311
11669.34,11.59564
11671.27,11.64818
11673.2,11.70728
11675.13,11.59353
11677.06,11.60086
11678.99,11.67705
11680.92,11.66216
11682.84,11.49214
11684.77,11.49957
11686.7,11.64491
11688.63,11.61613
11690.56,11.56477
11692.49,11.55216
11694.41,11.47647
11696.34,11.47968
11698.27,11.54307
11700.2,11.62051
11702.13,11.61967
11704.06,11.581
11705.99,11.5334
11707.91,11.54607
11709.84,11.5868
11711.77,11.55596
11713.7,11.65878
11715.63,11.68795
11717.56,11.62975
11719.48,11.60103
11721.41,11.58674
11723.34,11.57122
11725.27,11.60277
11727.2,11.6166
11729.13,11.50383
11731.06,11.46691
11732.98,11.54717
11734.91,11.8319
11736.84,11.9064
11738.77,11.689
11740.7,11.62257
11742.63,11.61164
11744.56,11.60521
11746.48,11.65318
11748.41,11.69274
11750.34,11.67606
11752.27,11.67728
11754.2,11.68477
11756.13,11.6908
11758.05,11.79433
11759.98,11.72286
11761.91,11.6426
11763.84,11.68474
11765.77,11.62992
11767.7,11.68487
11769.63,11.71244
11771.55,11.69126
11773.48,11.63412
11775.41,11.69758
11777.34,11.78645
11779.27,11.84258
11781.2,11.75663
11783.13,11.64688
11785.05,11.70734
11786.98,11.70586
11788.91,11.65741
11790.84,11.53951
11792.77,11.53216
11794.7,11.64466
11796.63,11.68321
11798.55,11.59055
11800.48,11.62678
11802.41,11.64625
11804.34,11.59821
11806.27,11.66692
11808.2,11.68588
11810.12,11.60922
11812.05,11.62697
11813.98,11.69934
11815.91,11.70841
11817.84,11.72231
11819.77,11.77023
11821.7,11.82091
11823.62,11.74311
11825.55,11.77399
11827.48,11.74778
11829.41,11.73715
11831.34,11.66379
11833.27,11.53706
11835.19,11.56673
11837.12,11.68005
11839.05,11.78374
11840.98,11.80253
11842.91,11.65874
11844.84,11.63086
11846.77,11.67613
11848.69,11.67862
11850.62,11.58826
11852.55,11.61894
11854.48,11.606
11856.41,11.59023
11858.34,11.61987
11860.27,11.69856
11862.19,11.63326
11864.12,11.55132
11866.05,11.54015
11867.98,11.55261
11869.91,11.51227
11871.84,11.52719
11873.76,11.6396
11875.69,11.79255
11877.62,11.74007
11879.55,11.73871
11881.48,11.81359
11883.41,11.68917
11885.34,11.54996
11887.26,11.47867
11889.19,11.41572
11891.12,11.50412
11893.05,11.56711
11894.98,11.45529
11896.91,11.63029
11898.83,11.76316
11900.76,11.65613
11902.69,11.5695
11904.62,11.52704
11906.55,11.46025
11908.48,11.43659
11910.41,11.5001
11912.33,11.67949
11914.26,11.734
11916.19,11.57396
11918.12,11.47265
11920.05,11.61219
11921.98,11.62474
11923.91,11.51179
11925.83,11.44179
11927.76,11.53049
11929.69,11.58779
11931.62,11.57439
11933.55,11.48888
11935.48,11.52125
11937.41,11.57677
11939.33,11.54316
11941.26,11.66617
11943.19,11.63532
11945.12,11.52722
11947.05,11.54641
11948.98,11.64771
11950.9,11.58786
11952.83,11.59554
11954.76,11.63235
11956.69,11.60166
11958.62,11.66628
11960.55,11.61754
11962.48,11.52256
11964.4,11.62737
11966.33,11.70426
11968.26,11.57786
11970.19,11.57777
11972.12,11.56439
11974.05,11.52686
11975.98,11.62777
11977.9,11.50589
11979.83,11.39876
11981.76,11.50177
11983.69,11.41598
11985.62,11.4259
11987.55,11.51509
11989.47,11.48755
11991.4,11.55937
11993.33,11.59654
11995.26,11.5562
11997.19,11.58815
11999.12,11.62319
