Wavenumber,Intensity
3999.706,1.227147
4001.634,1.224806
4003.563,1.224305
4005.491,1.222638
4007.42,1.224013
4009.348,1.227468
4011.277,1.226553
4013.205,1.225124
4015.134,1.223
4017.062,1.225597
4018.991,1.226784
4020.919,1.226976
4022.848,1.227278
4024.776,1.229077
4026.705,1.229859
4028.633,1.231473
4030.562,1.230691
4032.49,1.232378
4034.419,1.233306
4036.347,1.23044
4038.276,1.231165
4040.204,1.234274
4042.133,1.234976
4044.061,1.23796
4045.99,1.238529
4047.918,1.2339
4049.847,1.234921
4051.775,1.237844
4053.704,1.235289
4055.632,1.233546
4057.561,1.235788
4059.489,1.232811
4061.418,1.233695
4063.346,1.240795
4065.275,1.242698
4067.203,1.239175
4069.132,1.23916
4071.06,1.24065
4072.989,1.241467
4074.917,1.24247
4076.846,1.243258
4078.774,1.24325
4080.703,1.242578
4082.631,1.241471
4084.56,1.236546
4086.488,1.23597
4088.417,1.237679
4090.345,1.236966
4092.274,1.242598
4094.202,1.243171
4096.131,1.240107
4098.059,1.241402
4099.988,1.244884
4101.916,1.248142
4103.845,1.247045
4105.773,1.241864
4107.702,1.23848
4109.63,1.241866
4111.559,1.243887
4113.487,1.242424
4115.416,1.24394
4117.344,1.246083
4119.273,1.246919
4121.201,1.243969
4123.13,1.245668
4125.058,1.242003
4126.987,1.243422
4128.915,1.246439
4130.844,1.243933
4132.772,1.246463
4134.701,1.247562
4136.629,1.241813
4138.558,1.23954
4140.486,1.245311
4142.415,1.247808
4144.343,1.247922
4146.271,1.246869
4148.2,1.246473
4150.129,1.246628
4152.057,1.247893
4153.986,1.245626
4155.914,1.24696
4157.843,1.246689
4159.771,1.242719
4161.7,1.244436
4163.628,1.248354
4165.557,1.248595
4167.485,1.249243
4169.414,1.249426
4171.342,1.249328
4173.271,1.251571
4175.199,1.254331
4177.127,1.255897
4179.056,1.252122
4180.985,1.253158
4182.913,1.253732
4184.842,1.256436
4186.77,1.258781
4188.699,1.260084
4190.627,1.260309
4192.556,1.259413
4194.484,1.261832
4196.413,1.261848
4198.341,1.258891
4200.27,1.261272
4202.198,1.263384
4204.126,1.266001
4206.055,1.263585
4207.983,1.263247
4209.912,1.2676
4211.841,1.269649
4213.769,1.267595
4215.698,1.269839
4217.626,1.273952
4219.555,1.273886
4221.483,1.273994
4223.412,1.272741
4225.34,1.272344
4227.269,1.271657
4229.197,1.272726
4231.125,1.272638
4233.054,1.272298
4234.982,1.275407
4236.911,1.277883
4238.84,1.278961
4240.768,1.276129
4242.697,1.276753
4244.625,1.276517
4246.554,1.274531
4248.482,1.272513
4250.411,1.272642
4252.339,1.276152
4254.268,1.27816
4256.196,1.279049
4258.125,1.278284
4260.053,1.28067
4261.981,1.283969
4263.91,1.284055
4265.838,1.285128
4267.767,1.286675
4269.696,1.283325
4271.624,1.281362
4273.553,1.283343
4275.481,1.285531
4277.41,1.286251
4279.338,1.286093
4281.267,1.289571
4283.195,1.293799
4285.124,1.291891
4287.052,1.288369
4288.98,1.287903
4290.909,1.29015
4292.837,1.291375
4294.766,1.293032
4296.694,1.29493
4298.623,1.293164
4300.552,1.291613
4302.48,1.292428
4304.409,1.295612
4306.337,1.294518
4308.266,1.292811
4310.194,1.292126
4312.123,1.288617
4314.051,1.288164
4315.979,1.288654
4317.908,1.285724
4319.836,1.283393
4321.765,1.28416
4323.693,1.284496
4325.622,1.283597
4327.551,1.283383
4329.479,1.284434
4331.408,1.28296
4333.336,1.282909
4335.265,1.283828
4337.193,1.286075
4339.122,1.292296
4341.05,1.292595
4342.979,1.290087
4344.907,1.290304
4346.835,1.287601
4348.764,1.289363
4350.692,1.29237
4352.621,1.294884
4354.549,1.296708
4356.478,1.295548
4358.407,1.2928
4360.335,1.293396
4362.264,1.294145
4364.192,1.29462
4366.121,1.294583
4368.049,1.297476
4369.978,1.295377
4371.906,1.296791
4373.834,1.298819
4375.763,1.298034
4377.691,1.296688
4379.62,1.296306
4381.548,1.300553
4383.477,1.300178
4385.405,1.296555
4387.334,1.297885
4389.263,1.297416
4391.191,1.296749
4393.12,1.299026
4395.048,1.299796
4396.977,1.299776
4398.905,1.301814
4400.833,1.305529
4402.762,1.305861
4404.69,1.307316
4406.619,1.312469
4408.547,1.317397
4410.476,1.321902
4412.404,1.328668
4414.333,1.33478
4416.262,1.339794
4418.19,1.346683
4420.119,1.352309
4422.047,1.359385
4423.976,1.371264
4425.904,1.380489
4427.833,1.39035
4429.761,1.400813
4431.689,1.409361
4433.618,1.420381
4435.546,1.433688
4437.475,1.447208
4439.403,1.46111
4441.332,1.473721
4443.26,1.48788
4445.189,1.502439
4447.117,1.518816
4449.046,1.535916
4450.975,1.550834
4452.903,1.565257
4454.832,1.580471
4456.76,1.599205
4458.688,1.617659
4460.617,1.633257
4462.545,1.64631
4464.474,1.658443
4466.402,1.675706
4468.331,1.691958
4470.259,1.706783
4472.188,1.719419
4474.116,1.73201
4476.045,1.749522
4477.974,1.767665
4479.902,1.784855
4481.831,1.800791
4483.759,1.81573
4485.688,1.831142
4487.616,1.847347
4489.544,1.863335
4491.473,1.882088
4493.401,1.898315
4495.33,1.915438
4497.258,1.930473
4499.187,1.950773
4501.115,1.971284
4503.044,1.983911
4504.972,2.000263
4506.901,2.02052
4508.83,2.036522
4510.758,2.05529
4512.687,2.077676
4514.615,2.094493
4516.543,2.108724
4518.472,2.127975
4520.4,2.145829
4522.329,2.161124
4524.257,2.175198
4526.186,2.189088
4528.114,2.207331
4530.043,2.224321
4531.971,2.239144
4533.9,2.255486
4535.828,2.272495
4537.757,2.290397
4539.686,2.310507
4541.614,2.328671
4543.542,2.346325
4545.471,2.364383
4547.399,2.379652
4549.328,2.397637
4551.256,2.415987
4553.185,2.433843
4555.113,2.452515
4557.042,2.471818
4558.97,2.493309
4560.899,2.512912
4562.827,2.530033
4564.756,2.546769
4566.685,2.56246
4568.613,2.576396
4570.542,2.591432
4572.47,2.606254
4574.398,2.619033
4576.327,2.634967
4578.255,2.646058
4580.184,2.653655
4582.112,2.666351
4584.041,2.680506
4585.969,2.690885
4587.898,2.70264
4589.826,2.715933
4591.755,2.724528
4593.683,2.731883
4595.612,2.73998
4597.54,2.746967
4599.469,2.753512
4601.397,2.759652
4603.326,2.765757
4605.254,2.772786
4607.183,2.781499
4609.111,2.78892
4611.04,2.79521
4612.968,2.802973
4614.897,2.808562
4616.825,2.813309
4618.754,2.821594
4620.682,2.830209
4622.611,2.839735
4624.539,2.847775
4626.468,2.855782
4628.396,2.864685
4630.325,2.87136
4632.253,2.874078
4634.182,2.876666
4636.11,2.879657
4638.039,2.883714
4639.967,2.887388
4641.896,2.89348
4643.824,2.895149
4645.753,2.894241
4647.681,2.893072
4649.61,2.8924
4651.538,2.88713
4653.467,2.878845
4655.396,2.868548
4657.324,2.856882
4659.252,2.841032
4661.181,2.828166
4663.109,2.815269
4665.038,2.802631
4666.966,2.799522
4668.895,2.806187
4670.823,2.817883
4672.752,2.830534
4674.68,2.848673
4676.609,2.874232
4678.537,2.894145
4680.466,2.909027
4682.394,2.922069
4684.323,2.937301
4686.251,2.947929
4688.18,2.953858
4690.108,2.957227
4692.037,2.959225
4693.965,2.961335
4695.894,2.963814
4697.822,2.96116
4699.751,2.96309
4701.679,2.964983
4703.608,2.961107
4705.536,2.957405
4707.465,2.954552
4709.393,2.947993
4711.322,2.943182
4713.25,2.94034
4715.179,2.937424
4717.107,2.928435
4719.036,2.915661
4720.964,2.906768
4722.893,2.895951
4724.821,2.888793
4726.75,2.881623
4728.678,2.870985
4730.606,2.865218
4732.535,2.862352
4734.464,2.858942
4736.392,2.853476
4738.321,2.850889
4740.249,2.847639
4742.178,2.8434
4744.106,2.837172
4746.035,2.832143
4747.963,2.824134
4749.892,2.819303
4751.82,2.815392
4753.749,2.80763
4755.677,2.802098
4757.605,2.795202
4759.534,2.787965
4761.463,2.777567
4763.391,2.766026
4765.32,2.756772
4767.248,2.744903
4769.177,2.73029
4771.105,2.716994
4773.034,2.704574
4774.962,2.693295
4776.891,2.68378
4778.819,2.672828
4780.748,2.667222
4782.676,2.662925
4784.604,2.658783
4786.533,2.655747
4788.462,2.653345
4790.39,2.649758
4792.319,2.646317
4794.247,2.64022
4796.176,2.634067
4798.104,2.627107
4800.033,2.621393
4801.961,2.610182
4803.89,2.600401
4805.818,2.593319
4807.747,2.585182
4809.675,2.573598
4811.604,2.560085
4813.532,2.551468
4815.46,2.537177
4817.389,2.522042
4819.317,2.510884
4821.246,2.501466
4823.175,2.488607
4825.103,2.477699
4827.032,2.471886
4828.96,2.45802
4830.889,2.445783
4832.817,2.438677
4834.746,2.431688
4836.674,2.418016
4838.603,2.404701
4840.531,2.391456
4842.459,2.376202
4844.388,2.361908
4846.316,2.348655
4848.245,2.330847
4850.174,2.316022
4852.102,2.301438
4854.031,2.286794
4855.959,2.271522
4857.888,2.259144
4859.816,2.249907
4861.745,2.242988
4863.673,2.236699
4865.602,2.228625
4867.53,2.218654
4869.458,2.214994
4871.387,2.218513
4873.315,2.21966
4875.244,2.221993
4877.172,2.225313
4879.101,2.23172
4881.03,2.233768
4882.958,2.235641
4884.887,2.239869
4886.815,2.243392
4888.744,2.248274
4890.672,2.253084
4892.601,2.257902
4894.529,2.264199
4896.458,2.268106
4898.386,2.27152
4900.314,2.276861
4902.243,2.278376
4904.171,2.27892
4906.1,2.282457
4908.028,2.284434
4909.957,2.284487
4911.886,2.283724
4913.814,2.283026
4915.743,2.282256
4917.671,2.281124
4919.6,2.282209
4921.528,2.281993
4923.457,2.282729
4925.385,2.282324
4927.313,2.277717
4929.242,2.277225
4931.17,2.277097
4933.099,2.275902
4935.027,2.274801
4936.956,2.268754
4938.885,2.264337
4940.813,2.264339
4942.742,2.261366
4944.67,2.251728
4946.599,2.242292
4948.527,2.230128
4950.456,2.211925
4952.384,2.191114
4954.313,2.169595
4956.241,2.14127
4958.169,2.112887
4960.098,2.08579
4962.026,2.067159
4963.955,2.057668
4965.883,2.052661
4967.812,2.05823
4969.74,2.068988
4971.669,2.079867
4973.598,2.087984
4975.526,2.094863
4977.455,2.100536
4979.383,2.105084
4981.312,2.11328
4983.24,2.122065
4985.168,2.13191
4987.097,2.142148
4989.025,2.155272
4990.954,2.168976
4992.882,2.180264
4994.811,2.191489
4996.739,2.209348
4998.668,2.224832
5000.597,2.239243
5002.525,2.24964
5004.454,2.254185
5006.382,2.262944
5008.311,2.270908
5010.239,2.274909
5012.167,2.276437
5014.096,2.278899
5016.024,2.280151
5017.953,2.279046
5019.881,2.282799
5021.81,2.288903
5023.738,2.296065
5025.667,2.304118
5027.596,2.307054
5029.524,2.312364
5031.452,2.318576
5033.381,2.31868
5035.31,2.31807
5037.238,2.32017
5039.167,2.323962
5041.095,2.325684
5043.023,2.323682
5044.952,2.322628
5046.88,2.325423
5048.809,2.32535
5050.737,2.319685
5052.666,2.315857
5054.595,2.311888
5056.523,2.301885
5058.451,2.29216
5060.38,2.287903
5062.309,2.287974
5064.237,2.283192
5066.166,2.280641
5068.094,2.283512
5070.022,2.285432
5071.951,2.284335
5073.879,2.285187
5075.808,2.283172
5077.736,2.283795
5079.665,2.282559
5081.593,2.27763
5083.522,2.273621
5085.45,2.272662
5087.379,2.268235
5089.308,2.26296
5091.236,2.259402
5093.165,2.257083
5095.093,2.255098
5097.021,2.25178
5098.95,2.247841
5100.878,2.247787
5102.807,2.251006
5104.735,2.253697
5106.664,2.259073
5108.592,2.262144
5110.521,2.266583
5112.449,2.271669
5114.378,2.27423
5116.307,2.275859
5118.235,2.279992
5120.163,2.28363
5122.092,2.283247
5124.021,2.284673
5125.949,2.288829
5127.877,2.290458
5129.806,2.293114
5131.734,2.295921
5133.663,2.296358
5135.591,2.296057
5137.52,2.29264
5139.448,2.287191
5141.377,2.283939
5143.305,2.280938
5145.234,2.276183
5147.162,2.273311
5149.091,2.268763
5151.02,2.263223
5152.948,2.256426
5154.876,2.252007
5156.805,2.248744
5158.733,2.246679
5160.662,2.244436
5162.59,2.24348
5164.519,2.241892
5166.447,2.242709
5168.376,2.245213
5170.304,2.243312
5172.233,2.238967
5174.161,2.241122
5176.09,2.238809
5178.019,2.234434
5179.947,2.233323
5181.875,2.232064
5183.804,2.23305
5185.732,2.229475
5187.661,2.228702
5189.589,2.227157
5191.518,2.227116
5193.446,2.229307
5195.375,2.232428
5197.303,2.233876
5199.232,2.233957
5201.16,2.236835
5203.089,2.244772
5205.018,2.25564
5206.946,2.247506
5208.874,2.236864
5210.803,2.230391
5212.731,2.232623
5214.66,2.234387
5216.588,2.236355
5218.517,2.233047
5220.445,2.2335
5222.374,2.240153
5224.302,2.246032
5226.231,2.241242
5228.159,2.238657
5230.088,2.241545
5232.016,2.244198
5233.945,2.245143
5235.873,2.248241
5237.802,2.249969
5239.73,2.250757
5241.659,2.25894
5243.587,2.267965
5245.516,2.270992
5247.444,2.270938
5249.373,2.263154
5251.301,2.267589
5253.229,2.275941
5255.158,2.273829
5257.087,2.270447
5259.015,2.275733
5260.944,2.278265
5262.872,2.277825
5264.801,2.272743
5266.729,2.271352
5268.658,2.271894
5270.586,2.266459
5272.515,2.263415
5274.443,2.26123
5276.372,2.257842
5278.3,2.262294
5280.229,2.266139
5282.157,2.266238
5284.086,2.269491
5286.014,2.268157
5287.943,2.270309
5289.871,2.27027
5291.8,2.261965
5293.729,2.260731
5295.657,2.25671
5297.585,2.2565
5299.514,2.248217
5301.442,2.242395
5303.371,2.238103
5305.299,2.237606
5307.228,2.233781
5309.156,2.229111
5311.085,2.233453
5313.013,2.239778
5314.941,2.248715
5316.87,2.261642
5318.799,2.272898
5320.727,2.282181
5322.656,2.291171
5324.584,2.300866
5326.513,2.303745
5328.441,2.295913
5330.37,2.296639
5332.298,2.291499
5334.227,2.287755
5336.155,2.291341
5338.084,2.282387
5340.012,2.26265
5341.94,2.257559
5343.869,2.248343
5345.798,2.23051
5347.726,2.216881
5349.655,2.197979
5351.583,2.189885
5353.512,2.172324
5355.44,2.1534
5357.369,2.142747
5359.297,2.136221
5361.226,2.129695
5363.154,2.117375
5365.083,2.100329
5367.011,2.089136
5368.939,2.079988
5370.868,2.069283
5372.797,2.061565
5374.725,2.059996
5376.654,2.050608
5378.582,2.037705
5380.511,2.033479
5382.439,2.03103
5384.368,2.028805
5386.296,2.013774
5388.225,2.001646
5390.153,1.993139
5392.082,1.986741
5394.01,1.974166
5395.938,1.961019
5397.867,1.94707
5399.796,1.936111
5401.724,1.926451
5403.652,1.913961
5405.581,1.901493
5407.51,1.893091
5409.438,1.880405
5411.367,1.863696
5413.295,1.844768
5415.224,1.818431
5417.152,1.804226
5419.081,1.793071
5421.009,1.787441
5422.938,1.782927
5424.866,1.77555
5426.795,1.77057
5428.723,1.762314
5430.651,1.752928
5432.58,1.755305
5434.509,1.748608
5436.437,1.742828
5438.366,1.748182
5440.294,1.747968
5442.223,1.73891
5444.151,1.7358
5446.08,1.727101
5448.008,1.723814
5449.937,1.718841
5451.865,1.714741
5453.793,1.711985
5455.722,1.710022
5457.65,1.710722
5459.579,1.710337
5461.508,1.700676
5463.436,1.695547
5465.365,1.690433
5467.293,1.688512
5469.222,1.685508
5471.15,1.678721
5473.079,1.67557
5475.007,1.666884
5476.936,1.654091
5478.864,1.654064
5480.792,1.647188
5482.721,1.64074
5484.649,1.637225
5486.578,1.634134
5488.507,1.625323
5490.435,1.624826
5492.363,1.626646
5494.292,1.621998
5496.221,1.621824
5498.149,1.626223
5500.078,1.626055
5502.006,1.626236
5503.935,1.629581
5505.863,1.63306
5507.792,1.632641
5509.72,1.631302
5511.648,1.632377
5513.577,1.635198
5515.505,1.64075
5517.434,1.639909
5519.362,1.642003
5521.291,1.644058
5523.22,1.640897
5525.148,1.637443
5527.077,1.640299
5529.005,1.641483
5530.934,1.639973
5532.862,1.642496
5534.791,1.64206
5536.719,1.636604
5538.647,1.630233
5540.576,1.630103
5542.504,1.630859
5544.433,1.629361
5546.361,1.628254
5548.29,1.626149
5550.219,1.625203
5552.147,1.626954
5554.076,1.625379
5556.004,1.623154
5557.933,1.626496
5559.861,1.629316
5561.79,1.633795
5563.718,1.639086
5565.646,1.645328
5567.575,1.653441
5569.503,1.660647
5571.432,1.668794
5573.36,1.677897
5575.289,1.686617
5577.218,1.695386
5579.146,1.702362
5581.074,1.708492
5583.003,1.71629
5584.932,1.721924
5586.86,1.725984
5588.789,1.726488
5590.717,1.730032
5592.646,1.725282
5594.574,1.718797
5596.502,1.717328
5598.431,1.710273
5600.359,1.701746
5602.288,1.695786
5604.216,1.686355
5606.145,1.679329
5608.073,1.669231
5610.002,1.660518
5611.931,1.649923
5613.859,1.635736
5615.788,1.62519
5617.716,1.618579
5619.645,1.6106
5621.573,1.601852
5623.501,1.591925
5625.43,1.583743
5627.358,1.57347
5629.287,1.566569
5631.215,1.555779
5633.144,1.546409
5635.072,1.539277
5637.001,1.531206
5638.93,1.523345
5640.858,1.511579
5642.786,1.499364
5644.715,1.485885
5646.644,1.471968
5648.572,1.452363
5650.5,1.43504
5652.429,1.422248
5654.357,1.407169
5656.286,1.395883
5658.214,1.38778
5660.143,1.383337
5662.071,1.378969
5664.0,1.380737
5665.929,1.385675
5667.857,1.38617
5669.785,1.387201
5671.714,1.390492
5673.643,1.398244
5675.571,1.401737
5677.5,1.405272
5679.428,1.412759
5681.356,1.418428
5683.285,1.424437
5685.213,1.42897
5687.142,1.437556
5689.07,1.44422
5690.999,1.45066
5692.927,1.460789
5694.856,1.4709
5696.784,1.481109
5698.713,1.491964
5700.642,1.499892
5702.57,1.511817
5704.499,1.525462
5706.427,1.539548
5708.355,1.548078
5710.284,1.555962
5712.212,1.561672
5714.141,1.566525
5716.069,1.567857
5717.998,1.566652
5719.926,1.559717
5721.855,1.549793
5723.783,1.535191
5725.712,1.513411
5727.641,1.492017
5729.569,1.474931
5731.497,1.460196
5733.426,1.452678
5735.354,1.449863
5737.283,1.446652
5739.211,1.43893
5741.14,1.431635
5743.068,1.427032
5744.997,1.418969
5746.925,1.408934
5748.854,1.397103
5750.782,1.39062
5752.711,1.385655
5754.639,1.383491
5756.568,1.380452
5758.496,1.375533
5760.425,1.373468
5762.354,1.371191
5764.282,1.367612
5766.21,1.366545
5768.139,1.364754
5770.067,1.365927
5771.996,1.365898
5773.924,1.363455
5775.853,1.366088
5777.781,1.368104
5779.71,1.367293
5781.638,1.365478
5783.567,1.364039
5785.495,1.366522
5787.424,1.368318
5789.353,1.365995
5791.281,1.366768
5793.209,1.368038
5795.138,1.36794
5797.066,1.370663
5798.995,1.372654
5800.923,1.373671
5802.852,1.375809
5804.78,1.374746
5806.709,1.377867
5808.637,1.379654
5810.566,1.382286
5812.494,1.385598
5814.423,1.38734
5816.352,1.389755
5818.28,1.392383
5820.208,1.396108
5822.137,1.40053
5824.065,1.404447
5825.994,1.40866
5827.922,1.415853
5829.851,1.422922
5831.779,1.430936
5833.708,1.439836
5835.636,1.451028
5837.565,1.457225
5839.493,1.464174
5841.422,1.47371
5843.35,1.486694
5845.279,1.502358
5847.207,1.516503
5849.136,1.534921
5851.064,1.558588
5852.993,1.580227
5854.921,1.603821
5856.85,1.637081
5858.778,1.67327
5860.707,1.71014
5862.635,1.750539
5864.563,1.790086
5866.492,1.836588
5868.421,1.886047
5870.349,1.938603
5872.278,1.995025
5874.206,2.057578
5876.135,2.121407
5878.063,2.184682
5879.992,2.249753
5881.92,2.316756
5883.849,2.382791
5885.777,2.445766
5887.706,2.50448
5889.634,2.559726
5891.563,2.607278
5893.491,2.654458
5895.42,2.697583
5897.348,2.732063
5899.277,2.765464
5901.205,2.798819
5903.134,2.832748
5905.063,2.875521
5906.991,2.919211
5908.919,2.968092
5910.848,3.02492
5912.776,3.091336
5914.705,3.160967
5916.633,3.232203
5918.562,3.309913
5920.49,3.397341
5922.419,3.485265
5924.347,3.576228
5926.276,3.665026
5928.204,3.751667
5930.133,3.837281
5932.061,3.920331
5933.99,4.000198
5935.918,4.080466
5937.847,4.155191
5939.775,4.22324
5941.704,4.289787
5943.632,4.354335
5945.561,4.413599
5947.489,4.47772
5949.418,4.539413
5951.346,4.599311
5953.274,4.655373
5955.203,4.71347
5957.132,4.772809
5959.06,4.833309
5960.989,4.895763
5962.917,4.95724
5964.846,5.0175
5966.774,5.080836
5968.703,5.143536
5970.631,5.208175
5972.56,5.263761
5974.488,5.318261
5976.417,5.373901
5978.345,5.429645
5980.273,5.480185
5982.202,5.532299
5984.131,5.582301
5986.059,5.630907
5987.988,5.678939
5989.916,5.732101
5991.845,5.773859
5993.773,5.815569
5995.702,5.858519
5997.63,5.903582
5999.559,5.94788
6001.487,5.990283
6003.416,6.027163
6005.344,6.068405
6007.272,6.107817
6009.201,6.149628
6011.13,6.188259
6013.058,6.225759
6014.986,6.263613
6016.915,6.302279
6018.844,6.342428
6020.772,6.378602
6022.701,6.408459
6024.629,6.445625
6026.558,6.477828
6028.486,6.509019
6030.415,6.540509
6032.343,6.572433
6034.271,6.600029
6036.2,6.630325
6038.129,6.658837
6040.057,6.683513
6041.985,6.709096
6043.914,6.738197
6045.843,6.758718
6047.771,6.785447
6049.7,6.808043
6051.628,6.829565
6053.557,6.850877
6055.485,6.877414
6057.414,6.898717
6059.342,6.918784
6061.271,6.936102
6063.199,6.958567
6065.128,6.976392
6067.056,6.997766
6068.984,7.0169
6070.913,7.03145
6072.842,7.044246
6074.77,7.065203
6076.698,7.081036
6078.627,7.094169
6080.556,7.105602
6082.484,7.122081
6084.413,7.136389
6086.341,7.151632
6088.27,7.160026
6090.198,7.170715
6092.126,7.179348
6094.055,7.187568
6095.983,7.195337
6097.912,7.201286
6099.841,7.201283
6101.769,7.206532
6103.697,7.211546
6105.626,7.219583
6107.555,7.223457
6109.483,7.232622
6111.412,7.243471
6113.34,7.2579
6115.269,7.271305
6117.197,7.287921
6119.125,7.298941
6121.054,7.317191
6122.982,7.33882
6124.911,7.359219
6126.84,7.372348
6128.768,7.389438
6130.696,7.408709
6132.625,7.428638
6134.554,7.444736
6136.482,7.463514
6138.41,7.477715
6140.339,7.495725
6142.268,7.51339
6144.196,7.531354
6146.125,7.549949
6148.053,7.566974
6149.981,7.578886
6151.91,7.596383
6153.839,7.614364
6155.767,7.632496
6157.695,7.648949
6159.624,7.664426
6161.553,7.678355
6163.481,7.699744
6165.409,7.713632
6167.338,7.728198
6169.267,7.74671
6171.195,7.765707
6173.124,7.779132
6175.052,7.798828
6176.98,7.807772
6178.909,7.816774
6180.837,7.82845
6182.766,7.843849
6184.694,7.852223
6186.623,7.863776
6188.552,7.874363
6190.48,7.883642
6192.408,7.891245
6194.337,7.904341
6196.266,7.913925
6198.194,7.92248
6200.123,7.930747
6202.051,7.940958
6203.979,7.950091
6205.908,7.958423
6207.836,7.966355
6209.765,7.974255
6211.693,7.978517
6213.622,7.985207
6215.551,7.994939
6217.479,8.006778
6219.407,8.013771
6221.336,8.019729
6223.265,8.023478
6225.193,8.028805
6227.121,8.036511
6229.05,8.045001
6230.979,8.048934
6232.907,8.055097
6234.835,8.057416
6236.764,8.06244
6238.692,8.063018
6240.621,8.069129
6242.549,8.076312
6244.478,8.081746
6246.406,8.084629
6248.335,8.087118
6250.264,8.086693
6252.192,8.090299
6254.12,8.086576
6256.049,8.088296
6257.978,8.094412
6259.906,8.100461
6261.834,8.103477
6263.763,8.106713
6265.691,8.109029
6267.62,8.115695
6269.548,8.118399
6271.477,8.120957
6273.405,8.122347
6275.334,8.121972
6277.263,8.124716
6279.191,8.130495
6281.119,8.134604
6283.048,8.142232
6284.977,8.143254
6286.905,8.142487
6288.833,8.143551
6290.762,8.144819
6292.69,8.146794
6294.619,8.147314
6296.547,8.148647
6298.476,8.154627
6300.404,8.154377
6302.333,8.154762
6304.262,8.154691
6306.19,8.153098
6308.118,8.152027
6310.047,8.154647
6311.976,8.157011
6313.904,8.158828
6315.832,8.159435
6317.761,8.158052
6319.689,8.15169
6321.618,8.15125
6323.546,8.149138
6325.475,8.144505
6327.403,8.137824
6329.332,8.133673
6331.26,8.127075
6333.189,8.123454
6335.117,8.121647
6337.046,8.117528
6338.975,8.11138
6340.903,8.105608
6342.831,8.098647
6344.76,8.09208
6346.688,8.082444
6348.617,8.07403
6350.545,8.069745
6352.474,8.065311
6354.402,8.053448
6356.331,8.044262
6358.259,8.038242
6360.188,8.027842
6362.116,8.017402
6364.045,8.005584
6365.974,7.987936
6367.902,7.971004
6369.83,7.95506
6371.759,7.936535
6373.688,7.917531
6375.616,7.906034
6377.544,7.895488
6379.473,7.891449
6381.401,7.879038
6383.33,7.869869
6385.258,7.870983
6387.187,7.867171
6389.115,7.859875
6391.044,7.858385
6392.973,7.851877
6394.901,7.846504
6396.829,7.837718
6398.758,7.828414
6400.687,7.817163
6402.615,7.799885
6404.543,7.776181
6406.472,7.760602
6408.4,7.738736
6410.329,7.714969
6412.257,7.692837
6414.186,7.669939
6416.114,7.652071
6418.043,7.641656
6419.971,7.630463
6421.9,7.615679
6423.828,7.603262
6425.757,7.597236
6427.686,7.592247
6429.614,7.583643
6431.542,7.572223
6433.471,7.56611
6435.399,7.55218
6437.328,7.537219
6439.256,7.515041
6441.185,7.495471
6443.113,7.475806
6445.042,7.449615
6446.97,7.418948
6448.898,7.393375
6450.827,7.362349
6452.756,7.328451
6454.685,7.297854
6456.613,7.269688
6458.541,7.230359
6460.47,7.186691
6462.398,7.13909
6464.327,7.077479
6466.255,7.005571
6468.184,6.929518
6470.112,6.84797
6472.041,6.763388
6473.969,6.672578
6475.897,6.588105
6477.826,6.513714
6479.755,6.463226
6481.684,6.432185
6483.612,6.418681
6485.54,6.422646
6487.469,6.44068
6489.397,6.461824
6491.326,6.486365
6493.254,6.513835
6495.183,6.541673
6497.111,6.568603
6499.04,6.593961
6500.968,6.619224
6502.896,6.642567
6504.825,6.66544
6506.754,6.685596
6508.682,6.705377
6510.61,6.72349
6512.539,6.739524
6514.468,6.75865
6516.396,6.776232
6518.325,6.791862
6520.253,6.802685
6522.182,6.815912
6524.11,6.82714
6526.039,6.84168
6527.967,6.854615
6529.896,6.862178
6531.824,6.871176
6533.753,6.884088
6535.681,6.888923
6537.609,6.894708
6539.538,6.902936
6541.467,6.911431
6543.396,6.919034
6545.324,6.926142
6547.252,6.930989
6549.181,6.937458
6551.109,6.939106
6553.038,6.943415
6554.966,6.946789
6556.895,6.956922
6558.823,6.964755
6560.752,6.970273
6562.68,6.974512
6564.608,6.98594
6566.537,6.990001
6568.466,7.000972
6570.394,7.013484
6572.323,7.021937
6574.251,7.028013
6576.18,7.032988
6578.108,7.038291
6580.037,7.045918
6581.965,7.050558
6583.894,7.058488
6585.822,7.058294
6587.751,7.060166
6589.679,7.065515
6591.607,7.068213
6593.536,7.067905
6595.465,7.06989
6597.393,7.071108
6599.321,7.068696
6601.25,7.065796
6603.179,7.066589
6605.107,7.063949
6607.036,7.063552
6608.964,7.062773
6610.893,7.066411
6612.821,7.061851
6614.75,7.059531
6616.678,7.057694
6618.606,7.053252
6620.535,7.046273
6622.464,7.044275
6624.392,7.038089
6626.32,7.032467
6628.249,7.027193
6630.178,7.022565
6632.106,7.01576
6634.035,7.010568
6635.963,7.000728
6637.892,6.99425
6639.82,6.988727
6641.749,6.980876
6643.677,6.969469
6645.605,6.964098
6647.534,6.955666
6649.463,6.946842
6651.391,6.9387
6653.319,6.934627
6655.248,6.923641
6657.177,6.911413
6659.105,6.898633
6661.034,6.889923
6662.962,6.880063
6664.891,6.865868
6666.819,6.850706
6668.748,6.844028
6670.676,6.834573
6672.604,6.820415
6674.533,6.807461
6676.462,6.795405
6678.39,6.780632
6680.318,6.769157
6682.247,6.75721
6684.176,6.744143
6686.104,6.731559
6688.032,6.712646
6689.961,6.699003
6691.89,6.686713
6693.818,6.674142
6695.747,6.660739
6697.675,6.642188
6699.604,6.622766
6701.532,6.606155
6703.46,6.589006
6705.389,6.571169
6707.317,6.554215
6709.246,6.536102
6711.175,6.51869
6713.103,6.503889
6715.031,6.488254
6716.96,6.469663
6718.889,6.450706
6720.817,6.427342
6722.746,6.408157
6724.674,6.398571
6726.603,6.38348
6728.531,6.360062
6730.459,6.344912
6732.388,6.330678
6734.316,6.31677
6736.245,6.299652
6738.174,6.283485
6740.102,6.2626
6742.03,6.243229
6743.959,6.224698
6745.888,6.208587
6747.816,6.195567
6749.745,6.179272
6751.673,6.160124
6753.602,6.141745
6755.53,6.124599
6757.458,6.109601
6759.387,6.094453
6761.315,6.07801
6763.244,6.056151
6765.173,6.035233
6767.101,6.013217
6769.029,5.994915
6770.958,5.976779
6772.887,5.957279
6774.815,5.934498
6776.743,5.909288
6778.672,5.879338
6780.601,5.84994
6782.529,5.824497
6784.458,5.798522
6786.386,5.767566
6788.314,5.737712
6790.243,5.710176
6792.171,5.682576
6794.1,5.643377
6796.028,5.610286
6797.957,5.582486
6799.886,5.548875
6801.814,5.513447
6803.742,5.482351
6805.671,5.448773
6807.6,5.418402
6809.528,5.386761
6811.457,5.354735
6813.385,5.325384
6815.313,5.298129
6817.242,5.26917
6819.17,5.232156
6821.099,5.197464
6823.027,5.162528
6824.956,5.12662
6826.885,5.091688
6828.813,5.055012
6830.741,5.02721
6832.67,5.0042
6834.599,4.979575
6836.527,4.954381
6838.455,4.937263
6840.384,4.924414
6842.313,4.909104
6844.241,4.8922
6846.169,4.881283
6848.098,4.864558
6850.026,4.847841
6851.955,4.831908
6853.884,4.81506
6855.812,4.794213
6857.74,4.772492
6859.669,4.755706
6861.598,4.743102
6863.526,4.724818
6865.454,4.706258
6867.383,4.690125
6869.312,4.66838
6871.24,4.649309
6873.168,4.638148
6875.097,4.616549
6877.025,4.596023
6878.954,4.568789
6880.882,4.540392
6882.811,4.519142
6884.739,4.502268
6886.668,4.473803
6888.597,4.444543
6890.525,4.420161
6892.453,4.397714
6894.382,4.374578
6896.311,4.351089
6898.239,4.32809
6900.167,4.30637
6902.096,4.285783
6904.024,4.273205
6905.953,4.257871
6907.881,4.244148
6909.81,4.228477
6911.738,4.214634
6913.667,4.190085
6915.596,4.173326
6917.524,4.154034
6919.452,4.127041
6921.381,4.104487
6923.31,4.079692
6925.238,4.057437
6927.166,4.031496
6929.095,3.999321
6931.023,3.968854
6932.952,3.93786
6934.88,3.91228
6936.809,3.879578
6938.737,3.844179
6940.666,3.809561
6942.594,3.77691
6944.523,3.754112
6946.451,3.729316
6948.38,3.707284
6950.309,3.693972
6952.237,3.678629
6954.165,3.669449
6956.094,3.667092
6958.022,3.66174
6959.951,3.656821
6961.879,3.663294
6963.808,3.656813
6965.736,3.651814
6967.665,3.653834
6969.593,3.658602
6971.521,3.653311
6973.45,3.651843
6975.379,3.651653
6977.308,3.6459
6979.236,3.643474
6981.164,3.642435
6983.093,3.639379
6985.021,3.634423
6986.95,3.627373
6988.878,3.617873
6990.807,3.60932
6992.735,3.597453
6994.664,3.58392
6996.592,3.579008
6998.521,3.565318
7000.449,3.550635
7002.378,3.539473
7004.307,3.526117
7006.235,3.514474
7008.163,3.494643
7010.092,3.478921
7012.021,3.471263
7013.949,3.455541
7015.877,3.437855
7017.806,3.422693
7019.734,3.414217
7021.663,3.407039
7023.591,3.402694
7025.52,3.400783
7027.448,3.399082
7029.377,3.402405
7031.305,3.406143
7033.234,3.407325
7035.162,3.404897
7037.091,3.405644
7039.02,3.409709
7040.948,3.406286
7042.876,3.395803
7044.805,3.381397
7046.733,3.366987
7048.662,3.341867
7050.59,3.31364
7052.519,3.281942
7054.447,3.243485
7056.376,3.202429
7058.304,3.165774
7060.232,3.141327
7062.161,3.131694
7064.09,3.122645
7066.019,3.133543
7067.947,3.161041
7069.875,3.200501
7071.804,3.241268
7073.732,3.284706
7075.661,3.333986
7077.589,3.387666
7079.518,3.437652
7081.446,3.478799
7083.375,3.511157
7085.303,3.544215
7087.231,3.576516
7089.16,3.597101
7091.089,3.621262
7093.018,3.650101
7094.946,3.668582
7096.874,3.688112
7098.803,3.715187
7100.731,3.748798
7102.66,3.781355
7104.588,3.816889
7106.517,3.847392
7108.445,3.882681
7110.374,3.911357
7112.302,3.948385
7114.23,3.9888
7116.159,4.028718
7118.088,4.05572
7120.016,4.081776
7121.944,4.102625
7123.873,4.126994
7125.802,4.140662
7127.73,4.148382
7129.659,4.155057
7131.587,4.149405
7133.516,4.143074
7135.444,4.131917
7137.373,4.109515
7139.301,4.077311
7141.229,4.049356
7143.158,4.022393
7145.087,3.982704
7147.015,3.934893
7148.943,3.886751
7150.872,3.831041
7152.801,3.760361
7154.729,3.678611
7156.658,3.578694
7158.586,3.469474
7160.515,3.341595
7162.443,3.200864
7164.372,3.084171
7166.3,2.965743
7168.229,2.866863
7170.157,2.795309
7172.086,2.764431
7174.014,2.761884
7175.942,2.797014
7177.871,2.857471
7179.8,2.923181
7181.729,2.99792
7183.657,3.076802
7185.585,3.160058
7187.514,3.239017
7189.442,3.320178
7191.371,3.398918
7193.299,3.481489
7195.228,3.558789
7197.156,3.638741
7199.085,3.718582
7201.013,3.801266
7202.941,3.88643
7204.87,3.968153
7206.799,4.036707
7208.727,4.116404
7210.655,4.192146
7212.584,4.261886
7214.513,4.322685
7216.441,4.394978
7218.37,4.470555
7220.298,4.538404
7222.227,4.601338
7224.155,4.681098
7226.083,4.75808
7228.012,4.828558
7229.94,4.908598
7231.869,4.983303
7233.798,5.030221
7235.726,5.091737
7237.654,5.15622
7239.583,5.231369
7241.512,5.297964
7243.44,5.35149
7245.369,5.402952
7247.297,5.464359
7249.226,5.522902
7251.154,5.59022
7253.083,5.652749
7255.011,5.711287
7256.939,5.773737
7258.868,5.837533
7260.797,5.904662
7262.725,5.964214
7264.653,6.019577
7266.582,6.083246
7268.511,6.141026
7270.439,6.203989
7272.368,6.264173
7274.296,6.327758
7276.225,6.386858
7278.153,6.447314
7280.082,6.506534
7282.01,6.56217
7283.938,6.621016
7285.867,6.686596
7287.796,6.743052
7289.724,6.797203
7291.652,6.857627
7293.581,6.924412
7295.51,6.972704
7297.438,7.03385
7299.366,7.089123
7301.295,7.135663
7303.224,7.188323
7305.152,7.258482
7307.081,7.31747
7309.009,7.373547
7310.938,7.432613
7312.866,7.478485
7314.794,7.525208
7316.723,7.565525
7318.651,7.610676
7320.58,7.664942
7322.509,7.72071
7324.437,7.767205
7326.365,7.814143
7328.294,7.837863
7330.223,7.856683
7332.151,7.88392
7334.08,7.914807
7336.008,7.947166
7337.937,7.989343
7339.865,8.012033
7341.793,8.028224
7343.722,8.048444
7345.65,8.068146
7347.579,8.092688
7349.508,8.114395
7351.436,8.144406
7353.364,8.183291
7355.293,8.217918
7357.222,8.23328
7359.15,8.263243
7361.079,8.2994
7363.007,8.339362
7364.936,8.367151
7366.864,8.404762
7368.792,8.431964
7370.721,8.454362
7372.649,8.485488
7374.578,8.525928
7376.507,8.548249
7378.435,8.584469
7380.363,8.624588
7382.292,8.64614
7384.221,8.6651
7386.149,8.687237
7388.077,8.705294
7390.006,8.728899
7391.935,8.759315
7393.863,8.780699
7395.792,8.795488
7397.72,8.804338
7399.648,8.813293
7401.577,8.841706
7403.505,8.863046
7405.434,8.870104
7407.362,8.86998
7409.291,8.878515
7411.22,8.88995
7413.148,8.905232
7415.076,8.919084
7417.005,8.929421
7418.934,8.93455
7420.862,8.942943
7422.791,8.9478
7424.719,8.951623
7426.647,8.956696
7428.576,8.964097
7430.504,8.973394
7432.433,8.977193
7434.361,8.983315
7436.29,8.99194
7438.219,8.992418
7440.147,8.996065
7442.075,9.000871
7444.004,9.011648
7445.933,9.016685
7447.861,9.015473
7449.789,9.022401
7451.718,9.027452
7453.646,9.036467
7455.575,9.042209
7457.503,9.041979
7459.432,9.046856
7461.36,9.055642
7463.289,9.052321
7465.218,9.055551
7467.146,9.062721
7469.074,9.065344
7471.003,9.063301
7472.932,9.062405
7474.86,9.067191
7476.788,9.069158
7478.717,9.074252
7480.646,9.074856
7482.574,9.074967
7484.502,9.075627
7486.431,9.075541
7488.359,9.072531
7490.288,9.072701
7492.216,9.071313
7494.145,9.071433
7496.073,9.077452
7498.002,9.075115
7499.931,9.069213
7501.859,9.064673
7503.787,9.059589
7505.716,9.06643
7507.645,9.067162
7509.573,9.064144
7511.501,9.059894
7513.43,9.054308
7515.358,9.054456
7517.287,9.052794
7519.215,9.049459
7521.144,9.055855
7523.072,9.049836
7525.001,9.047648
7526.93,9.044734
7528.858,9.040294
7530.786,9.03863
7532.715,9.036019
7534.644,9.033453
7536.572,9.029745
7538.5,9.022711
7540.429,9.020226
7542.357,9.0107
7544.286,9.005303
7546.214,9.005013
7548.143,9.004375
7550.071,9.004683
7552.0,8.997953
7553.928,8.991175
7555.857,8.99098
7557.785,8.988262
7559.714,8.974554
7561.643,8.969728
7563.571,8.966558
7565.499,8.962518
7567.428,8.956046
7569.356,8.953743
7571.285,8.947229
7573.213,8.935405
7575.142,8.93614
7577.07,8.933748
7578.999,8.932828
7580.927,8.928795
7582.855,8.926246
7584.784,8.920124
7586.713,8.91006
7588.642,8.90026
7590.57,8.898127
7592.498,8.898272
7594.427,8.895052
7596.355,8.886084
7598.284,8.873553
7600.212,8.860893
7602.141,8.851536
7604.069,8.843245
7605.998,8.831848
7607.926,8.835119
7609.854,8.828171
7611.783,8.821628
7613.712,8.817525
7615.641,8.80426
7617.569,8.795238
7619.497,8.784309
7621.426,8.771551
7623.354,8.763519
7625.283,8.759571
7627.211,8.751061
7629.14,8.737264
7631.068,8.723092
7632.997,8.715294
7634.925,8.71078
7636.854,8.702114
7638.782,8.691435
7640.711,8.685836
7642.639,8.679469
7644.568,8.665295
7646.496,8.650289
7648.425,8.643505
7650.354,8.64427
7652.282,8.636067
7654.21,8.61729
7656.139,8.604047
7658.067,8.601306
7659.996,8.602025
7661.924,8.593683
7663.853,8.580058
7665.781,8.578037
7667.71,8.566648
7669.638,8.552876
7671.566,8.550033
7673.495,8.539849
7675.424,8.529856
7677.353,8.529075
7679.281,8.525273
7681.209,8.52274
7683.138,8.507768
7685.066,8.498404
7686.995,8.497849
7688.923,8.490362
7690.852,8.482908
7692.78,8.487152
7694.709,8.474934
7696.637,8.466146
7698.565,8.462887
7700.494,8.45473
7702.423,8.451535
7704.352,8.448536
7706.28,8.439132
7708.208,8.432045
7710.137,8.423422
7712.065,8.419699
7713.994,8.413183
7715.922,8.408725
7717.851,8.39565
7719.779,8.385455
7721.708,8.381542
7723.636,8.385036
7725.564,8.380077
7727.493,8.364862
7729.422,8.357597
7731.35,8.351798
7733.279,8.342426
7735.207,8.340117
7737.136,8.332233
7739.064,8.317204
7740.993,8.311299
7742.921,8.317066
7744.85,8.318098
7746.778,8.30723
7748.707,8.294005
7750.635,8.288722
7752.563,8.281953
7754.492,8.273692
7756.421,8.268397
7758.349,8.254606
7760.277,8.244601
7762.206,8.241739
7764.135,8.238883
7766.063,8.229568
7767.992,8.219283
7769.92,8.199646
7771.849,8.185586
7773.777,8.182296
7775.706,8.173432
7777.634,8.172445
7779.563,8.174421
7781.491,8.161886
7783.42,8.155443
7785.348,8.157705
7787.276,8.150903
7789.205,8.143679
7791.134,8.141492
7793.063,8.135657
7794.991,8.130616
7796.919,8.125944
7798.848,8.11714
7800.776,8.114663
7802.705,8.109412
7804.633,8.093233
7806.562,8.079936
7808.49,8.080751
7810.419,8.072959
7812.347,8.05305
7814.275,8.042185
7816.204,8.040354
7818.133,8.035115
7820.061,8.028618
7821.989,8.024745
7823.918,8.009943
7825.847,7.99728
7827.775,7.993571
7829.704,7.98143
7831.632,7.970162
7833.561,7.96208
7835.489,7.955496
7837.417,7.941446
7839.346,7.929769
7841.274,7.928856
7843.203,7.923207
7845.132,7.907412
7847.06,7.890569
7848.988,7.878701
7850.917,7.87301
7852.846,7.857807
7854.774,7.83954
7856.703,7.827291
7858.631,7.819671
7860.56,7.808564
7862.488,7.795977
7864.417,7.781657
7866.345,7.77472
7868.273,7.763509
7870.202,7.748011
7872.131,7.730583
7874.059,7.715479
7875.987,7.702859
7877.916,7.687997
7879.845,7.679509
7881.773,7.666684
7883.702,7.640582
7885.63,7.623934
7887.559,7.615679
7889.487,7.603836
7891.416,7.583355
7893.344,7.561
7895.272,7.543715
7897.201,7.528672
7899.13,7.500277
7901.058,7.493688
7902.986,7.466901
7904.915,7.452831
7906.844,7.448948
7908.772,7.431522
7910.7,7.416762
7912.629,7.402233
7914.558,7.382994
7916.486,7.365783
7918.415,7.341481
7920.343,7.317122
7922.271,7.303405
7924.2,7.28522
7926.128,7.2669
7928.057,7.248203
7929.985,7.227568
7931.914,7.210574
7933.843,7.19648
7935.771,7.177615
7937.699,7.155622
7939.628,7.131178
7941.557,7.101811
7943.485,7.078057
7945.414,7.064951
7947.342,7.046209
7949.271,7.017308
7951.199,6.997476
7953.127,6.979133
7955.056,6.956029
7956.984,6.928935
7958.913,6.903097
7960.842,6.880797
7962.77,6.856255
7964.698,6.832597
7966.627,6.805545
7968.556,6.780414
7970.484,6.749836
7972.413,6.729046
7974.341,6.710719
7976.27,6.687801
7978.198,6.658637
7980.126,6.637312
7982.055,6.617059
7983.983,6.587381
7985.912,6.558917
7987.841,6.52945
7989.769,6.495231
7991.697,6.46665
7993.626,6.441047
7995.555,6.416894
7997.483,6.39772
7999.411,6.373063
8001.34,6.344901
8003.269,6.305295
8005.197,6.272882
8007.125,6.247702
8009.054,6.214437
8010.982,6.186491
8012.911,6.161533
8014.839,6.130239
8016.768,6.103889
8018.696,6.078611
8020.625,6.039331
8022.554,6.001191
8024.482,5.97181
8026.41,5.939038
8028.339,5.902664
8030.268,5.87178
8032.196,5.846663
8034.125,5.809945
8036.053,5.768024
8037.981,5.730989
8039.91,5.701463
8041.838,5.674106
8043.767,5.635135
8045.695,5.59549
8047.624,5.557822
8049.553,5.526071
8051.481,5.498029
8053.409,5.458707
8055.338,5.415226
8057.267,5.377147
8059.195,5.337144
8061.124,5.30394
8063.052,5.267395
8064.98,5.229522
8066.909,5.194203
8068.837,5.156902
8070.766,5.115883
8072.694,5.076167
8074.623,5.042293
8076.552,5.000543
8078.48,4.960127
8080.408,4.923626
8082.337,4.877879
8084.266,4.835776
8086.194,4.80423
8088.122,4.764978
8090.051,4.718894
8091.979,4.672667
8093.908,4.630826
8095.836,4.592034
8097.765,4.547053
8099.693,4.497028
8101.622,4.462953
8103.551,4.42355
8105.479,4.379422
8107.407,4.332484
8109.336,4.290709
8111.265,4.241309
8113.192,4.188592
8115.121,4.145682
8117.05,4.098983
8118.979,4.051771
8120.907,4.001814
8122.835,3.960632
8124.764,3.9157
8126.692,3.856143
8128.621,3.800344
8130.55,3.756705
8132.478,3.718133
8134.406,3.674315
8136.335,3.623325
8138.264,3.582271
8140.191,3.543052
8142.12,3.49814
8144.049,3.437947
8145.978,3.383102
8147.906,3.330307
8149.834,3.277741
8151.763,3.243756
8153.691,3.204084
8155.62,3.150853
8157.548,3.099205
8159.477,3.049045
8161.405,3.003672
8163.334,2.953171
8165.263,2.910279
8167.19,2.864739
8169.119,2.821701
8171.048,2.777815
8172.977,2.742835
8174.905,2.697593
8176.833,2.65461
8178.762,2.611561
8180.69,2.571616
8182.619,2.532424
8184.547,2.492492
8186.476,2.462923
8188.404,2.43568
8190.333,2.406977
8192.262,2.370785
8194.189,2.338559
8196.118,2.31101
8198.047,2.292104
8199.976,2.274605
8201.903,2.251381
8203.832,2.23684
8205.761,2.221587
8207.689,2.197629
8209.618,2.183984
8211.546,2.172431
8213.475,2.15449
8215.403,2.152992
8217.332,2.155828
8219.261,2.144451
8221.188,2.131534
8223.117,2.135181
8225.046,2.142405
8226.975,2.140493
8228.902,2.130725
8230.831,2.144184
8232.76,2.153241
8234.688,2.138937
8236.617,2.136834
8238.545,2.151645
8240.474,2.149816
8242.402,2.136967
8244.331,2.14597
8246.259,2.154882
8248.188,2.160717
8250.116,2.179263
8252.045,2.182528
8253.974,2.173664
8255.901,2.185042
8257.83,2.199629
8259.759,2.200309
8261.688,2.213974
8263.616,2.227644
8265.544,2.237592
8267.473,2.257939
8269.401,2.268859
8271.33,2.285038
8273.258,2.306391
8275.187,2.331355
8277.115,2.351015
8279.044,2.360643
8280.973,2.373193
8282.9,2.406044
8284.829,2.4326
8286.758,2.446644
8288.687,2.474139
8290.614,2.501851
8292.543,2.532017
8294.472,2.562872
8296.4,2.594945
8298.329,2.626182
8300.257,2.648856
8302.186,2.675001
8304.114,2.700744
8306.043,2.730946
8307.972,2.76713
8309.899,2.787055
8311.828,2.804408
8313.757,2.82854
8315.686,2.867911
8317.613,2.902123
8319.542,2.927322
8321.471,2.952209
8323.399,2.983757
8325.328,3.017695
8327.256,3.036313
8329.185,3.054084
8331.113,3.081017
8333.042,3.117669
8334.97,3.160191
8336.898,3.187775
8338.827,3.212837
8340.756,3.253385
8342.685,3.276408
8344.612,3.311841
8346.541,3.358245
8348.47,3.397522
8350.398,3.435007
8352.327,3.46979
8354.255,3.496091
8356.184,3.527727
8358.112,3.569991
8360.041,3.60004
8361.969,3.631765
8363.897,3.666609
8365.826,3.703721
8367.755,3.734418
8369.684,3.767742
8371.611,3.801648
8373.54,3.83401
8375.469,3.861651
8377.397,3.898015
8379.325,3.925705
8381.254,3.96231
8383.183,3.994236
8385.111,4.005918
8387.04,4.015218
8388.968,4.050996
8390.896,4.08766
8392.825,4.112724
8394.754,4.12279
8396.683,4.139791
8398.61,4.161573
8400.539,4.179153
8402.468,4.189811
8404.396,4.196302
8406.324,4.20919
8408.253,4.227069
8410.182,4.23386
8412.11,4.231611
8414.039,4.240268
8415.967,4.256965
8417.896,4.252801
8419.824,4.25484
8421.753,4.269165
8423.681,4.283646
8425.609,4.300667
8427.538,4.316972
8429.467,4.344675
8431.396,4.374379
8433.323,4.399287
8435.252,4.437862
8437.181,4.474398
8439.109,4.509784
8441.037,4.553667
8442.966,4.588708
8444.895,4.635235
8446.823,4.683639
8448.752,4.732552
8450.68,4.784932
8452.608,4.832859
8454.537,4.869429
8456.466,4.910846
8458.395,4.971706
8460.322,5.011338
8462.251,5.037086
8464.18,5.064002
8466.108,5.089553
8468.036,5.132373
8469.965,5.179181
8471.894,5.209893
8473.822,5.243355
8475.751,5.283851
8477.679,5.319312
8479.607,5.347571
8481.536,5.38576
8483.465,5.436598
8485.393,5.469861
8487.321,5.492094
8489.25,5.526802
8491.179,5.566306
8493.107,5.601079
8495.035,5.625415
8496.964,5.654331
8498.893,5.683123
8500.821,5.710404
8502.75,5.745082
8504.678,5.768219
8506.606,5.777956
8508.535,5.798194
8510.464,5.806912
8512.392,5.812644
8514.32,5.828382
8516.249,5.848237
8518.178,5.872414
8520.106,5.889476
8522.034,5.903842
8523.963,5.924163
8525.892,5.946397
8527.82,5.965343
8529.748,5.975025
8531.677,5.980501
8533.605,5.98567
8535.534,5.999377
8537.463,6.011751
8539.391,5.988941
8541.319,5.976962
8543.248,5.969114
8545.177,5.942068
8547.105,5.909572
8549.033,5.896688
8550.962,5.8647
8552.891,5.820197
8554.819,5.787156
8556.747,5.759221
8558.676,5.73813
8560.604,5.717059
8562.533,5.69403
8564.462,5.683562
8566.39,5.707563
8568.318,5.739944
8570.247,5.763827
8572.176,5.799459
8574.104,5.849539
8576.032,5.893554
8577.961,5.938496
8579.89,5.986457
8581.818,6.03695
8583.746,6.09096
8585.675,6.147019
8587.604,6.198051
8589.532,6.260584
8591.461,6.320646
8593.389,6.373293
8595.317,6.433937
8597.246,6.503083
8599.175,6.572423
8601.103,6.642192
8603.031,6.701995
8604.96,6.762251
8606.889,6.817342
8608.817,6.880455
8610.745,6.946996
8612.674,6.999439
8614.603,7.053133
8616.531,7.109492
8618.459,7.180256
8620.388,7.235635
8622.316,7.280132
8624.245,7.34268
8626.174,7.403567
8628.102,7.443712
8630.03,7.485265
8631.959,7.527824
8633.888,7.572868
8635.816,7.618778
8637.744,7.654904
8639.673,7.681856
8641.602,7.725188
8643.53,7.771224
8645.458,7.808942
8647.387,7.835701
8649.315,7.866956
8651.244,7.902928
8653.173,7.942341
8655.101,7.960931
8657.029,7.993415
8658.958,8.023458
8660.887,8.049821
8662.814,8.078436
8664.743,8.102205
8666.672,8.111474
8668.601,8.138994
8670.529,8.169808
8672.457,8.201581
8674.386,8.218611
8676.314,8.235888
8678.243,8.259285
8680.172,8.277879
8682.1,8.295172
8684.028,8.326389
8685.957,8.357713
8687.886,8.384714
8689.813,8.408194
8691.742,8.438869
8693.671,8.469026
8695.6,8.502012
8697.528,8.527242
8699.456,8.545856
8701.385,8.578185
8703.313,8.631218
8705.242,8.664753
8707.17,8.687545
8709.099,8.723833
8711.027,8.758461
8712.956,8.784461
8714.885,8.821312
8716.813,8.865823
8718.741,8.899256
8720.67,8.940907
8722.599,8.969316
8724.527,8.989418
8726.455,9.021634
8728.384,9.056967
8730.313,9.087418
8732.241,9.120728
8734.169,9.161723
8736.098,9.192134
8738.026,9.22028
8739.955,9.23874
8741.884,9.269896
8743.812,9.306619
8745.74,9.34131
8747.669,9.372432
8749.598,9.390915
8751.525,9.416664
8753.454,9.44877
8755.383,9.475862
8757.312,9.492121
8759.24,9.517923
8761.168,9.543108
8763.097,9.565144
8765.025,9.590427
8766.954,9.612134
8768.882,9.625907
8770.811,9.664584
8772.739,9.687344
8774.668,9.696075
8776.597,9.719209
8778.524,9.737285
8780.453,9.74118
8782.382,9.756247
8784.311,9.789435
8786.239,9.799236
8788.167,9.818974
8790.096,9.835952
8792.024,9.846971
8793.953,9.855986
8795.881,9.873316
8797.81,9.887506
8799.738,9.896648
8801.667,9.911883
8803.596,9.924373
8805.523,9.933352
8807.452,9.947762
8809.381,9.950437
8811.31,9.962362
8813.237,9.978827
8815.166,10.00317
8817.095,10.00875
8819.023,10.00493
8820.952,10.0215
8822.88,10.03262
8824.809,10.03573
8826.737,10.0465
8828.666,10.04931
8830.595,10.0469
8832.522,10.05951
8834.451,10.06534
8836.38,10.06986
8838.309,10.07859
8840.236,10.09251
8842.165,10.10572
8844.094,10.10851
8846.022,10.10218
8847.951,10.09928
8849.879,10.10039
8851.808,10.11143
8853.736,10.11698
8855.665,10.12055
8857.593,10.12006
8859.521,10.11749
8861.45,10.11828
8863.379,10.12192
8865.308,10.14002
8867.235,10.15358
8869.164,10.15364
8871.093,10.1502
8873.021,10.13352
8874.95,10.13276
8876.878,10.14913
8878.807,10.15659
8880.735,10.1596
8882.664,10.16214
8884.592,10.16997
8886.521,10.15726
8888.449,10.15412
8890.378,10.15774
8892.307,10.1695
8894.234,10.16795
8896.163,10.15642
8898.092,10.1496
8900.021,10.14066
8901.948,10.13623
8903.877,10.13665
8905.806,10.15802
8907.734,10.16767
8909.663,10.15406
8911.591,10.13735
8913.52,10.14406
8915.448,10.14622
8917.377,10.13626
8919.306,10.13958
8921.233,10.14675
8923.162,10.13948
8925.091,10.13116
8927.02,10.13128
8928.947,10.13808
8930.876,10.13345
8932.805,10.13477
8934.733,10.13985
8936.662,10.13213
8938.59,10.12214
8940.519,10.13232
8942.447,10.13912
8944.376,10.12957
8946.304,10.12627
8948.232,10.12661
8950.161,10.12002
8952.09,10.12412
8954.019,10.13025
8955.946,10.12739
8957.875,10.11409
8959.804,10.12568
8961.732,10.1437
8963.661,10.13171
8965.589,10.12849
8967.518,10.12878
8969.446,10.12767
8971.375,10.12984
8973.303,10.12582
8975.231,10.12836
8977.16,10.13107
8979.089,10.12383
8981.018,10.14145
8982.945,10.14179
8984.874,10.13538
8986.803,10.14155
8988.731,10.14922
8990.659,10.14129
8992.588,10.13911
8994.517,10.15349
8996.445,10.15541
8998.374,10.14801
9000.302,10.15222
9002.23,10.14911
9004.159,10.1461
9006.088,10.14782
9008.017,10.15512
9009.944,10.16059
9011.873,10.16754
9013.802,10.1765
9015.73,10.17348
9017.658,10.16832
9019.587,10.16777
9021.516,10.15713
9023.444,10.16096
9025.373,10.16878
9027.301,10.17711
9029.229,10.17826
9031.158,10.17752
9033.087,10.17555
9035.015,10.17978
9036.943,10.18285
9038.872,10.18763
9040.801,10.189
9042.729,10.19452
9044.657,10.18172
9046.586,10.17328
9048.515,10.17566
9050.443,10.17193
9052.372,10.17805
9054.3,10.18892
9056.229,10.18646
9058.157,10.18958
9060.086,10.18359
9062.014,10.18897
9063.942,10.19651
9065.871,10.19659
9067.8,10.20235
9069.729,10.20633
9071.656,10.20153
9073.585,10.21
9075.514,10.21289
9077.442,10.18966
9079.37,10.18285
9081.299,10.19098
9083.228,10.20211
9085.156,10.21186
9087.085,10.20958
9089.013,10.2019
9090.941,10.20317
9092.87,10.20922
9094.799,10.20945
9096.727,10.20256
9098.655,10.19628
9100.584,10.1947
9102.513,10.20326
9104.441,10.20668
9106.369,10.21013
9108.298,10.21677
9110.227,10.2022
9112.155,10.19833
9114.084,10.20123
9116.012,10.19221
9117.94,10.17754
9119.869,10.18817
9121.798,10.18718
9123.726,10.18337
9125.654,10.18896
9127.583,10.18846
9129.512,10.18161
9131.44,10.18489
9133.368,10.18447
9135.297,10.17315
9137.226,10.16997
9139.154,10.17018
9141.082,10.15484
9143.011,10.15695
9144.939,10.17225
9146.868,10.17518
9148.797,10.16636
9150.725,10.16091
9152.653,10.1579
9154.582,10.15467
9156.511,10.14983
9158.439,10.15069
9160.367,10.15027
9162.296,10.14285
9164.225,10.14333
9166.153,10.13836
9168.081,10.13935
9170.01,10.14595
9171.938,10.14205
9173.867,10.14005
9175.796,10.13919
9177.724,10.13647
9179.652,10.13516
9181.581,10.12527
9183.51,10.11417
9185.438,10.11371
9187.366,10.11344
9189.295,10.12545
9191.224,10.11593
9193.152,10.10621
9195.08,10.0846
9197.009,10.08031
9198.938,10.08479
9200.866,10.08518
9202.795,10.09087
9204.723,10.08377
9206.651,10.07256
9208.58,10.07442
9210.509,10.07752
9212.437,10.07118
9214.365,10.07057
9216.294,10.07385
9218.223,10.06432
9220.151,10.06546
9222.079,10.07522
9224.008,10.06576
9225.937,10.0547
9227.865,10.04361
9229.793,10.03277
9231.722,10.03678
9233.65,10.04429
9235.579,10.03836
9237.508,10.03582
9239.436,10.04193
9241.364,10.03985
9243.293,10.04382
9245.222,10.02906
9247.15,10.02667
9249.078,10.0204
9251.007,10.01101
9252.936,10.01153
9254.864,10.01914
9256.792,10.01027
9258.721,10.01174
9260.649,9.999063
9262.578,9.986806
9264.507,9.99351
9266.435,10.01274
9268.363,10.01413
9270.292,10.00897
9272.221,9.979412
9274.148,9.964975
9276.077,9.978108
9278.006,9.967491
9279.935,9.946637
9281.863,9.945976
9283.791,9.955861
9285.72,9.968084
9287.648,9.964662
9289.577,9.952082
9291.506,9.948954
9293.434,9.959878
9295.362,9.968068
9297.291,9.979529
9299.22,9.959648
9301.147,9.962056
9303.076,9.958635
9305.005,9.963003
9306.934,9.946518
9308.862,9.938586
9310.79,9.933422
9312.719,9.937973
9314.647,9.961944
9316.576,9.96288
9318.504,9.957943
9320.433,9.960715
9322.361,9.963299
9324.29,9.951144
9326.219,9.951287
9328.146,9.951465
9330.075,9.961109
9332.004,9.963406
9333.933,9.949164
9335.861,9.930796
9337.789,9.92582
9339.718,9.933054
9341.646,9.922482
9343.575,9.915865
9345.503,9.933308
9347.432,9.950694
9349.36,9.950008
9351.289,9.938716
9353.218,9.9345
9355.146,9.919827
9357.074,9.91475
9359.003,9.913266
9360.932,9.90858
9362.859,9.893321
9364.788,9.88202
9366.717,9.887724
9368.646,9.883538
9370.574,9.876646
9372.502,9.875668
9374.431,9.885588
9376.359,9.86592
9378.288,9.846573
9380.217,9.845766
9382.145,9.848446
9384.073,9.854609
9386.002,9.853024
9387.931,9.839234
9389.858,9.827767
9391.787,9.819758
9393.716,9.806443
9395.645,9.800817
9397.573,9.803794
9399.501,9.800344
9401.43,9.802711
9403.358,9.801343
9405.287,9.793645
9407.215,9.787571
9409.144,9.78196
9411.072,9.777258
9413.001,9.76069
9414.93,9.768799
9416.857,9.76736
9418.786,9.746358
9420.715,9.731954
9422.644,9.731303
9424.571,9.736452
9426.5,9.745165
9428.429,9.741947
9430.357,9.729817
9432.286,9.728105
9434.214,9.704063
9436.143,9.699641
9438.071,9.688802
9440.0,9.677269
9441.929,9.685207
9443.856,9.689985
9445.785,9.671708
9447.714,9.661409
9449.643,9.66969
9451.57,9.653462
9453.499,9.632507
9455.428,9.622716
9457.356,9.625859
9459.285,9.635393
9461.213,9.609456
9463.142,9.590411
9465.07,9.581842
9466.999,9.581292
9468.927,9.575447
9470.855,9.563538
9472.784,9.566622
9474.713,9.573426
9476.642,9.568517
9478.569,9.571757
9480.498,9.564024
9482.427,9.549863
9484.355,9.558431
9486.284,9.549485
9488.212,9.544108
9490.141,9.536075
9492.069,9.522929
9493.998,9.517087
9495.926,9.50523
9497.854,9.501388
9499.783,9.500943
9501.712,9.506867
9503.641,9.493362
9505.568,9.481952
9507.497,9.494847
9509.426,9.49119
9511.354,9.467873
9513.282,9.476354
9515.211,9.483315
9517.14,9.473658
9519.068,9.454342
9520.997,9.452868
9522.925,9.463908
9524.854,9.460231
9526.782,9.457669
9528.711,9.45486
9530.64,9.446318
9532.567,9.437087
9534.496,9.419809
9536.425,9.424117
9538.354,9.426785
9540.281,9.409941
9542.21,9.399702
9544.139,9.402436
9546.067,9.401188
9547.996,9.391356
9549.924,9.409991
9551.853,9.395355
9553.781,9.373273
9555.71,9.372621
9557.638,9.3618
9559.566,9.353026
9561.495,9.3557
9563.424,9.353278
9565.353,9.350037
9567.28,9.352543
9569.209,9.342761
9571.138,9.321473
9573.066,9.320568
9574.995,9.324927
9576.923,9.323885
9578.852,9.314665
9580.78,9.31102
9582.709,9.298897
9584.637,9.309106
9586.565,9.314321
9588.494,9.30579
9590.423,9.311894
9592.352,9.292992
9594.279,9.271671
9596.208,9.269643
9598.137,9.289144
9600.065,9.287851
9601.993,9.281353
9603.922,9.29156
9605.851,9.304934
9607.779,9.315224
9609.708,9.324651
9611.636,9.325579
9613.564,9.326603
9615.493,9.316908
9617.422,9.323363
9619.351,9.335489
9621.278,9.341574
9623.207,9.369179
9625.136,9.384712
9627.064,9.388605
9628.992,9.399609
9630.921,9.393844
9632.85,9.397947
9634.778,9.392982
9636.707,9.376584
9638.635,9.376871
9640.563,9.404463
9642.492,9.415975
9644.421,9.424266
9646.349,9.426637
9648.277,9.428166
9650.206,9.467867
9652.135,9.473622
9654.063,9.47041
9655.991,9.494913
9657.92,9.496183
9659.849,9.499912
9661.777,9.491347
9663.706,9.506135
9665.634,9.540392
9667.563,9.540996
9669.491,9.539306
9671.42,9.564258
9673.348,9.570941
9675.276,9.572364
9677.205,9.579955
9679.134,9.583062
9681.063,9.5912
9682.99,9.593475
9684.919,9.600279
9686.848,9.598437
9688.776,9.609456
9690.704,9.644853
9692.633,9.649966
9694.562,9.640642
9696.49,9.664824
9698.419,9.686893
9700.347,9.679066
9702.275,9.679926
9704.204,9.692033
9706.133,9.696725
9708.062,9.707816
9709.989,9.72
9711.918,9.718737
9713.847,9.737112
9715.775,9.765874
9717.703,9.77011
9719.632,9.779881
9721.561,9.783408
9723.489,9.778051
9725.418,9.794498
9727.346,9.81606
9729.274,9.823623
9731.203,9.826422
9733.132,9.832005
9735.06,9.834607
9736.988,9.841015
9738.917,9.850667
9740.846,9.85455
9742.774,9.868495
9744.702,9.886376
9746.631,9.892898
9748.56,9.893729
9750.488,9.896486
9752.416,9.89174
9754.345,9.892805
9756.273,9.919212
9758.202,9.925106
9760.131,9.906731
9762.059,9.911243
9763.987,9.930384
9765.916,9.93786
9767.845,9.944418
9769.773,9.946434
9771.701,9.967257
9773.63,9.962201
9775.559,9.959105
9777.487,9.972329
9779.415,9.959716
9781.344,9.954569
9783.272,9.953756
9785.201,9.961542
9787.13,9.974989
9789.058,9.964905
9790.986,9.971772
9792.915,9.97126
9794.844,9.949032
9796.771,9.952914
9798.7,9.946453
9800.629,9.941846
9802.558,9.95413
9804.486,9.963398
9806.414,9.965619
9808.343,9.988617
9810.271,9.989733
9812.2,9.97714
9814.129,9.973508
9816.057,9.96553
9817.985,9.964662
9819.914,9.962843
9821.843,9.983735
9823.771,9.997414
9825.699,9.988132
9827.628,10.00079
9829.557,9.973879
9831.485,9.965394
9833.413,9.994788
9835.342,10.00219
9837.271,10.00249
9839.199,10.01879
9841.127,10.02134
9843.056,10.04009
9844.984,10.06481
9846.913,10.05717
9848.842,10.06127
9850.77,10.06038
9852.698,10.08683
9854.627,10.09441
9856.556,10.09091
9858.484,10.11818
9860.412,10.13846
9862.341,10.12515
9864.27,10.12949
9866.198,10.15195
9868.126,10.1619
9870.055,10.17901
9871.983,10.18841
9873.912,10.18604
9875.841,10.20684
9877.769,10.22158
9879.697,10.21677
9881.626,10.23406
9883.555,10.25052
9885.482,10.25337
9887.411,10.25951
9889.34,10.28433
9891.269,10.30479
9893.197,10.30898
9895.125,10.28992
9897.054,10.30347
9898.982,10.33659
9900.911,10.33483
9902.84,10.36201
9904.768,10.38941
9906.696,10.39225
9908.625,10.38478
9910.554,10.3794
9912.481,10.38916
9914.41,10.39342
9916.339,10.40637
9918.268,10.40874
9920.196,10.41807
9922.124,10.41751
9924.053,10.42758
9925.981,10.43796
9927.91,10.45989
9929.838,10.45813
9931.767,10.44409
9933.695,10.47004
9935.624,10.49202
9937.553,10.50358
9939.48,10.50483
9941.409,10.50757
9943.338,10.51112
9945.267,10.50006
9947.195,10.53236
9949.123,10.52972
9951.052,10.53067
9952.98,10.56212
9954.909,10.58129
9956.837,10.5823
9958.766,10.58247
9960.694,10.57731
9962.623,10.57913
9964.552,10.60257
9966.479,10.61116
9968.408,10.62165
9970.337,10.62508
9972.266,10.62539
9974.193,10.6112
9976.122,10.59357
9978.051,10.62611
9979.979,10.66625
9981.908,10.64447
9983.836,10.62874
9985.765,10.65283
9987.693,10.65588
9989.622,10.64021
9991.551,10.64061
9993.479,10.63481
9995.407,10.65193
9997.336,10.68295
9999.265,10.68248
10001.19,10.6627
10003.12,10.67064
10005.05,10.66957
10006.98,10.66391
10008.91,10.68147
10010.83,10.69361
10012.76,10.69142
10014.69,10.6899
10016.62,10.69285
10018.55,10.70053
10020.48,10.73084
10022.41,10.71663
10024.33,10.69126
10026.26,10.70698
10028.19,10.73713
10030.12,10.73565
10032.05,10.72445
10033.98,10.74297
10035.91,10.75273
10037.83,10.75224
10039.76,10.75233
10041.69,10.78721
10043.62,10.7877
10045.55,10.76773
10047.48,10.78366
10049.41,10.79394
10051.33,10.79143
10053.26,10.78269
10055.19,10.81067
10057.12,10.81151
10059.05,10.8071
10060.98,10.81101
10062.9,10.82611
10064.83,10.84236
10066.76,10.84085
10068.69,10.82119
10070.62,10.83692
10072.55,10.82643
10074.48,10.80753
10076.4,10.81934
10078.33,10.82901
10080.26,10.8469
10082.19,10.84941
10084.12,10.86049
10086.05,10.83803
10087.98,10.83548
10089.9,10.85248
10091.83,10.85649
10093.76,10.84272
10095.69,10.85205
10097.62,10.85666
10099.55,10.88464
10101.47,10.86617
10103.4,10.84439
10105.33,10.84185
10107.26,10.83657
10109.19,10.84185
10111.12,10.86139
10113.05,10.87121
10114.97,10.86684
10116.9,10.87461
10118.83,10.87755
10120.76,10.88141
10122.69,10.8804
10124.62,10.91188
10126.54,10.92054
10128.47,10.90195
10130.4,10.90818
10132.33,10.90568
10134.26,10.91127
10136.19,10.92289
10138.12,10.90698
10140.04,10.8982
10141.97,10.91942
10143.9,10.93833
10145.83,10.95445
10147.76,10.94915
10149.69,10.93121
10151.62,10.90255
10153.54,10.90175
10155.47,10.90609
10157.4,10.90294
10159.33,10.91676
10161.26,10.92569
10163.19,10.92414
10165.12,10.90441
10167.04,10.88799
10168.97,10.9018
10170.9,10.93672
10172.83,10.93431
10174.76,10.92026
10176.69,10.91807
10178.61,10.92198
10180.54,10.92739
10182.47,10.91509
10184.4,10.90419
10186.33,10.90482
10188.26,10.92042
10190.19,10.92088
10192.11,10.93821
10194.04,10.92475
10195.97,10.92044
10197.9,10.93499
10199.83,10.92793
10201.76,10.915
10203.69,10.92272
10205.61,10.92804
10207.54,10.92395
10209.47,10.92182
10211.4,10.93869
10213.33,10.95453
10215.26,10.95396
10217.18,10.93501
10219.11,10.94296
10221.04,10.95736
10222.97,10.97067
10224.9,11.0016
10226.83,10.96291
10228.76,10.90873
10230.68,10.90342
10232.61,10.91183
10234.54,10.92713
10236.47,10.91695
10238.4,10.90401
10240.33,10.89574
10242.25,10.90765
10244.18,10.9298
10246.11,10.94766
10248.04,10.95886
10249.97,10.9348
10251.9,10.95259
10253.83,10.95998
10255.75,10.95182
10257.68,10.93655
10259.61,10.92291
10261.54,10.91646
10263.47,10.90618
10265.4,10.89786
10267.33,10.89015
10269.25,10.89112
10271.18,10.90788
10273.11,10.91579
10275.04,10.91774
10276.97,10.88951
10278.9,10.88962
10280.83,10.87811
10282.75,10.86827
10284.68,10.87224
10286.61,10.87674
10288.54,10.90039
10290.47,10.89399
10292.4,10.87262
10294.32,10.86642
10296.25,10.86807
10298.18,10.88309
10300.11,10.88485
10302.04,10.90256
10303.97,10.9195
10305.9,10.90228
10307.82,10.88931
10309.75,10.8804
10311.68,10.9002
10313.61,10.92451
10315.54,10.88335
10317.47,10.8566
10319.4,10.85734
10321.32,10.88489
10323.25,10.90397
10325.18,10.8908
10327.11,10.88746
10329.04,10.87749
10330.97,10.8951
10332.89,10.89112
10334.82,10.84111
10336.75,10.83783
10338.68,10.86922
10340.61,10.88626
10342.54,10.88427
10344.47,10.87486
10346.39,10.86353
10348.32,10.8651
10350.25,10.84647
10352.18,10.83997
10354.11,10.82578
10356.04,10.85146
10357.96,10.84088
10359.89,10.84129
10361.82,10.86887
10363.75,10.86848
10365.68,10.84675
10367.61,10.82699
10369.54,10.79669
10371.46,10.83024
10373.39,10.83389
10375.32,10.8235
10377.25,10.79477
10379.18,10.78439
10381.11,10.80944
10383.04,10.83404
10384.96,10.82769
10386.89,10.81734
10388.82,10.8161
10390.75,10.8247
10392.68,10.81143
10394.61,10.81794
10396.54,10.81705
10398.46,10.78806
10400.39,10.79776
10402.32,10.80048
10404.25,10.80103
10406.18,10.79345
10408.11,10.79866
10410.03,10.78318
10411.96,10.77435
10413.89,10.82014
10415.82,10.79924
10417.75,10.7437
10419.68,10.73931
10421.61,10.7737
10423.53,10.79387
10425.46,10.77483
10427.39,10.75436
10429.32,10.74076
10431.25,10.7272
10433.18,10.73215
10435.1,10.7223
10437.03,10.71776
10438.96,10.71675
10440.89,10.73851
10442.82,10.71604
10444.75,10.69149
10446.68,10.72577
10448.6,10.72425
10450.53,10.67901
10452.46,10.67014
10454.39,10.69179
10456.32,10.71607
10458.25,10.73739
10460.18,10.69118
10462.1,10.65456
10464.03,10.67755
10465.96,10.64663
10467.89,10.64417
10469.82,10.63128
10471.75,10.61683
10473.67,10.64218
10475.6,10.63462
10477.53,10.63095
10479.46,10.62741
10481.39,10.58697
10483.32,10.55583
10485.25,10.58658
10487.17,10.58716
10489.1,10.59291
10491.03,10.57573
10492.96,10.54475
10494.89,10.53271
10496.82,10.50057
10498.75,10.51716
10500.67,10.50907
10502.6,10.47649
10504.53,10.4807
10506.46,10.49811
10508.39,10.49186
10510.32,10.49698
10512.25,10.47189
10514.17,10.45879
10516.1,10.4665
10518.03,10.44561
10519.96,10.42493
10521.89,10.41821
10523.82,10.38126
10525.74,10.38437
10527.67,10.36203
10529.6,10.33675
10531.53,10.34296
10533.46,10.33643
10535.39,10.32331
10537.32,10.2955
10539.24,10.27468
10541.17,10.30144
10543.1,10.30906
10545.03,10.27716
10546.96,10.25496
10548.89,10.2396
10550.81,10.19689
10552.74,10.17595
10554.67,10.17856
10556.6,10.17999
10558.53,10.14459
10560.46,10.11999
10562.39,10.15539
10564.31,10.13254
10566.24,10.08888
10568.17,10.06319
10570.1,10.04881
10572.03,10.03693
10573.96,9.992072
10575.89,9.954229
10577.81,9.950006
10579.74,9.968249
10581.67,9.928201
10583.6,9.849921
10585.53,9.844021
10587.46,9.842071
10589.38,9.830821
10591.31,9.801268
10593.24,9.787719
10595.17,9.792953
10597.1,9.742666
10599.03,9.706315
10600.96,9.684643
10602.88,9.642855
10604.81,9.641358
10606.74,9.598652
10608.67,9.567337
10610.6,9.580448
10612.53,9.58294
10614.46,9.529183
10616.38,9.477607
10618.31,9.465796
10620.24,9.431077
10622.17,9.390961
10624.1,9.391927
10626.03,9.343403
10627.96,9.311858
10629.88,9.274075
10631.81,9.241532
10633.74,9.219184
10635.67,9.215151
10637.6,9.183124
10639.53,9.109515
10641.45,9.044739
10643.38,9.034075
10645.31,9.056343
10647.24,9.031396
10649.17,8.965538
10651.1,8.910539
10653.03,8.894116
10654.95,8.898594
10656.88,8.88945
10658.81,8.856043
10660.74,8.797583
10662.67,8.760489
10664.6,8.731993
10666.52,8.688996
10668.45,8.641745
10670.38,8.617794
10672.31,8.627187
10674.24,8.614941
10676.17,8.551014
10678.1,8.531133
10680.02,8.520432
10681.95,8.47895
10683.88,8.40651
10685.81,8.379979
10687.74,8.37576
10689.67,8.408298
10691.59,8.419163
10693.52,8.365976
10695.45,8.351898
10697.38,8.332677
10699.31,8.309178
10701.24,8.303634
10703.17,8.29655
10705.09,8.298908
10707.02,8.289472
10708.95,8.288569
10710.88,8.265432
10712.81,8.219747
10714.74,8.2546
10716.67,8.247452
10718.59,8.240813
10720.52,8.240461
10722.45,8.250371
10724.38,8.251036
10726.31,8.241403
10728.24,8.235248
10730.17,8.2347
10732.09,8.229179
10734.02,8.267825
10735.95,8.285296
10737.88,8.247915
10739.81,8.234451
10741.74,8.289393
10743.67,8.320646
10745.59,8.291095
10747.52,8.302243
10749.45,8.328018
10751.38,8.294691
10753.31,8.307765
10755.24,8.320189
10757.16,8.296288
10759.09,8.287708
10761.02,8.349719
10762.95,8.399352
10764.88,8.450963
10766.81,8.454021
10768.74,8.403027
10770.66,8.408924
10772.59,8.462486
10774.52,8.471283
10776.45,8.490935
10778.38,8.531215
10780.31,8.521854
10782.23,8.474898
10784.16,8.505547
10786.09,8.586555
10788.02,8.613651
10789.95,8.656255
10791.88,8.654598
10793.81,8.662491
10795.73,8.719304
10797.66,8.714732
10799.59,8.733874
10801.52,8.752727
10803.45,8.767055
10805.38,8.735856
10807.3,8.737156
10809.23,8.789077
10811.16,8.859701
10813.09,8.890311
10815.02,8.88889
10816.95,8.887284
10818.88,8.87739
10820.8,8.903813
10822.73,8.943665
10824.66,8.969354
10826.59,8.989739
10828.52,9.030647
10830.45,9.080415
10832.38,9.095977
10834.3,9.121984
10836.23,9.152964
10838.16,9.173285
10840.09,9.179379
10842.02,9.201356
10843.95,9.210316
10845.88,9.254787
10847.8,9.304623
10849.73,9.305567
10851.66,9.314918
10853.59,9.302021
10855.52,9.266569
10857.45,9.265637
10859.38,9.306768
10861.3,9.384514
10863.23,9.411316
10865.16,9.420858
10867.09,9.440836
10869.02,9.487949
10870.95,9.543509
10872.87,9.585558
10874.8,9.531629
10876.73,9.5259
10878.66,9.55853
10880.59,9.612768
10882.52,9.623621
10884.45,9.63014
10886.37,9.64275
10888.3,9.64521
10890.23,9.676613
10892.16,9.74854
10894.09,9.752869
10896.02,9.693883
10897.94,9.694921
10899.87,9.766211
10901.8,9.815681
10903.73,9.805211
10905.66,9.7983
10907.59,9.824729
10909.52,9.839923
10911.44,9.860262
10913.37,9.893019
10915.3,9.948927
10917.23,9.979596
10919.16,9.990087
10921.09,10.00793
10923.01,10.02652
10924.94,10.05514
10926.87,10.09516
10928.8,10.05058
10930.73,10.05421
10932.66,10.10037
10934.59,10.15259
10936.51,10.14249
10938.44,10.12075
10940.37,10.15888
10942.3,10.17754
10944.23,10.19678
10946.16,10.23669
10948.09,10.2169
10950.01,10.20146
10951.94,10.19907
10953.87,10.26808
10955.8,10.30081
10957.73,10.31676
10959.66,10.37088
10961.58,10.34528
10963.51,10.32361
10965.44,10.40432
10967.37,10.40228
10969.3,10.35929
10971.23,10.37908
10973.16,10.41469
10975.08,10.39235
10977.01,10.4337
10978.94,10.46272
10980.87,10.47184
10982.8,10.45616
10984.73,10.44054
10986.66,10.48329
10988.58,10.51742
10990.51,10.51122
10992.44,10.55488
10994.37,10.58134
10996.3,10.58805
10998.23,10.60176
11000.16,10.63619
11002.08,10.62321
11004.01,10.60115
11005.94,10.63153
11007.87,10.68478
11009.8,10.66281
11011.73,10.611
11013.65,10.59298
11015.58,10.66072
11017.51,10.68709
11019.44,10.66361
11021.37,10.73452
11023.3,10.83235
11025.23,10.85826
11027.15,10.81899
11029.08,10.70702
11031.01,10.7157
11032.94,10.76529
11034.87,10.76157
11036.8,10.81691
11038.72,10.84017
11040.65,10.80138
11042.58,10.81867
11044.51,10.83595
11046.44,10.76503
11048.37,10.80172
11050.3,10.83605
11052.22,10.87509
11054.15,10.88337
11056.08,10.86054
11058.01,10.86553
11059.94,10.88397
11061.87,10.87852
11063.79,10.83078
11065.72,10.82656
11067.65,10.84479
11069.58,10.90297
11071.51,10.86311
11073.44,10.90673
11075.37,10.92248
11077.29,10.92149
11079.22,10.92256
11081.15,10.91401
11083.08,10.94593
11085.01,10.97703
11086.94,10.94187
11088.87,10.93439
11090.79,10.94201
11092.72,10.96803
11094.65,10.96574
11096.58,11.03183
11098.51,11.01932
11100.44,10.93898
11102.37,10.9414
11104.29,10.96842
11106.22,10.99149
11108.15,11.01014
11110.08,11.00286
11112.01,10.99167
11113.94,11.02644
11115.87,10.99501
11117.79,10.96604
11119.72,11.01738
11121.65,11.02207
11123.58,10.99206
11125.51,10.9876
11127.44,10.96812
11129.36,10.98612
11131.29,11.02338
11133.22,11.02491
11135.15,11.04702
11137.08,11.09363
11139.01,11.09349
11140.94,11.06866
11142.86,11.09117
11144.79,11.08244
11146.72,11.10186
11148.65,11.08173
11150.58,11.11238
11152.51,11.14376
11154.43,11.13654
11156.36,11.08574
11158.29,11.05907
11160.22,11.06762
11162.15,11.12431
11164.08,11.13127
11166.01,11.13475
11167.93,11.13615
11169.86,11.15571
11171.79,11.16687
11173.72,11.19689
11175.65,11.15577
11177.58,11.16701
11179.5,11.15333
11181.43,11.14924
11183.36,11.16202
11185.29,11.22888
11187.22,11.26733
11189.15,11.24412
11191.08,11.21179
11193.0,11.24293
11194.93,11.24626
11196.86,11.2805
11198.79,11.29821
11200.72,11.28344
11202.65,11.26751
11204.58,11.27629
11206.5,11.32601
11208.43,11.32995
11210.36,11.30112
11212.29,11.35931
11214.22,11.34859
11216.15,11.29114
11218.08,11.30886
11220.0,11.32506
11221.93,11.40085
11223.86,11.408
11225.79,11.39418
11227.72,11.38051
11229.65,11.42538
11231.58,11.47868
11233.5,11.42393
11235.43,11.38278
11237.36,11.39994
11239.29,11.44018
11241.22,11.44943
11243.15,11.40775
11245.07,11.32735
11247.0,11.3276
11248.93,11.36048
11250.86,11.44994
11252.79,11.54647
11254.72,11.51017
11256.65,11.45447
11258.57,11.53618
11260.5,11.55831
11262.43,11.54904
11264.36,11.46994
11266.29,11.38917
11268.22,11.43088
11270.14,11.50842
11272.07,11.54325
11274.0,11.54218
11275.93,11.52754
11277.86,11.50892
11279.79,11.50505
11281.72,11.54095
11283.64,11.5775
11285.57,11.55025
11287.5,11.48144
11289.43,11.50518
11291.36,11.50907
11293.29,11.53585
11295.21,11.59199
11297.14,11.55221
11299.07,11.52044
11301.0,11.47203
11302.93,11.51565
11304.86,11.50445
11306.79,11.47701
11308.71,11.56954
11310.64,11.63475
11312.57,11.64066
11314.5,11.64966
11316.43,11.61863
11318.36,11.52714
11320.29,11.5701
11322.21,11.63252
11324.14,11.61911
11326.07,11.56504
11328.0,11.6418
11329.93,11.7384
11331.86,11.75156
11333.79,11.72005
11335.71,11.68156
11337.64,11.63176
11339.57,11.61499
11341.5,11.68005
11343.43,11.72419
11345.36,11.72528
11347.28,11.71481
11349.21,11.65362
11351.14,11.63261
11353.07,11.61877
11355.0,11.65629
11356.93,11.62646
11358.86,11.60284
11360.78,11.64234
11362.71,11.67898
11364.64,11.71504
11366.57,11.71249
11368.5,11.71777
11370.43,11.72403
11372.36,11.65914
11374.28,11.60063
11376.21,11.63248
11378.14,11.67256
11380.07,11.67237
11382.0,11.61834
11383.93,11.63758
11385.85,11.73819
11387.78,11.76328
11389.71,11.80651
11391.64,11.76169
11393.57,11.70817
11395.5,11.71657
11397.43,11.73199
11399.35,11.6966
11401.28,11.7303
11403.21,11.75463
11405.14,11.77073
11407.07,11.77537
11409.0,11.75302
11410.92,11.71831
11412.85,11.75425
11414.78,11.73159
11416.71,11.7024
11418.64,11.77999
11420.57,11.80032
11422.5,11.7811
11424.42,11.84689
11426.35,11.82601
11428.28,11.78604
11430.21,11.83394
11432.14,11.86492
11434.07,11.88807
11436.0,11.88104
11437.92,11.83742
11439.85,11.88087
11441.78,11.93568
11443.71,11.93913
11445.64,11.86329
11447.57,11.83197
11449.5,11.80856
11451.42,11.86829
11453.35,11.88166
11455.28,11.84392
11457.21,11.9095
11459.14,11.90968
11461.07,11.84573
11462.99,11.83041
11464.92,11.855
11466.85,11.90525
11468.78,11.85944
11470.71,11.88081
11472.64,11.95476
11474.57,11.97375
11476.49,11.84943
11478.42,11.74118
11480.35,11.838
11482.28,11.87754
11484.21,11.89465
11486.14,11.81299
11488.07,11.84345
11489.99,11.88447
11491.92,11.87562
11493.85,11.8884
11495.78,11.93618
11497.71,11.99112
11499.64,11.97505
11501.56,11.95606
11503.49,11.92973
11505.42,11.85746
11507.35,11.8643
11509.28,11.87717
11511.21,11.85485
11513.14,11.94212
11515.06,11.89748
11516.99,11.8415
11518.92,11.92348
11520.85,11.96863
11522.78,12.00892
11524.71,11.97731
11526.63,11.9465
11528.56,11.96694
11530.49,11.9933
11532.42,11.97849
11534.35,11.91703
11536.28,11.94651
11538.21,11.91446
11540.13,11.91514
11542.06,12.01012
11543.99,12.07319
11545.92,12.08576
11547.85,12.02718
11549.78,11.95789
11551.71,11.96694
11553.63,11.9489
11555.56,11.91458
11557.49,11.95439
11559.42,11.98261
11561.35,11.97381
11563.28,12.03118
11565.21,12.02669
11567.13,12.00498
11569.06,12.04575
11570.99,12.00951
11572.92,11.96154
11574.85,11.98301
11576.78,11.94899
11578.7,11.94949
11580.63,11.94153
11582.56,11.96745
11584.49,11.98137
11586.42,11.96665
11588.35,12.0255
11590.28,12.11028
11592.2,12.04493
11594.13,11.90367
11596.06,11.94781
11597.99,12.07986
11599.92,12.06276
11601.85,12.01259
11603.78,11.99436
11605.7,12.03371
11607.63,12.0666
11609.56,12.06644
11611.49,12.05755
11613.42,12.01373
11615.35,12.01422
11617.27,12.06063
11619.2,11.98662
11621.13,12.11772
11623.06,12.07483
11624.99,11.99929
11626.92,12.04091
11628.85,12.1115
11630.77,12.05918
11632.7,12.04647
11634.63,12.12802
11636.56,12.13566
11638.49,12.06848
11640.42,12.04739
11642.34,12.04356
11644.27,12.11251
11646.2,12.1273
11648.13,12.13216
11650.06,12.06715
11651.99,12.09439
11653.92,12.09357
11655.84,12.00605
11657.77,11.9896
11659.7,12.01712
11661.63,12.07568
11663.56,12.10159
11665.49,12.03586
11667.42,12.0585
11669.34,12.13797
11671.27,12.11422
11673.2,12.11069
11675.13,11.97619
11677.06,11.92808
11678.99,12.02664
11680.92,12.05134
11682.84,12.04376
11684.77,11.99866
11686.7,12.0091
11688.63,12.06409
11690.56,12.16542
11692.49,12.11901
11694.41,12.03087
11696.34,12.04392
11698.27,11.99374
11700.2,11.99142
11702.13,11.9871
11704.06,12.01257
11705.99,12.07246
11707.91,11.97796
11709.84,11.93415
11711.77,11.98148
11713.7,12.06595
11715.63,12.11152
11717.56,12.10523
11719.48,12.10853
11721.41,12.06424
11723.34,12.02864
11725.27,12.02795
11727.2,12.08636
11729.13,12.04406
11731.06,11.95381
11732.98,12.00079
11734.91,12.16431
11736.84,12.06397
11738.77,12.03748
11740.7,12.13134
11742.63,12.08419
11744.56,12.04659
11746.48,12.05214
11748.41,12.03918
11750.34,11.96204
11752.27,11.94003
11754.2,12.07091
11756.13,12.14086
11758.05,12.12
11759.98,12.05202
11761.91,11.95828
11763.84,12.00302
11765.77,12.0514
11767.7,12.05456
11769.63,12.0645
11771.55,12.09064
11773.48,11.98441
11775.41,11.97051
11777.34,12.09074
11779.27,12.08002
11781.2,12.04088
11783.13,12.00187
11785.05,12.071
11786.98,12.05093
11788.91,12.05242
11790.84,12.02564
11792.77,12.05824
11794.7,12.1057
11796.63,12.02259
11798.55,11.97899
11800.48,11.96616
11802.41,11.94855
11804.34,11.94401
11806.27,11.95604
11808.2,12.01671
11810.12,11.98847
11812.05,12.00542
11813.98,12.00936
11815.91,11.92321
11817.84,12.05367
11819.77,12.16282
11821.7,12.06666
11823.62,11.93639
11825.55,11.98151
11827.48,11.94867
11829.41,11.93669
11831.34,11.8348
11833.27,11.78346
11835.19,11.88817
11837.12,11.93495
11839.05,12.03705
11840.98,12.09644
11842.91,11.95478
11844.84,11.90032
11846.77,11.95931
11848.69,11.90922
11850.62,11.89465
11852.55,12.09101
11854.48,12.02362
11856.41,11.92114
11858.34,11.89767
11860.27,11.96906
11862.19,11.99316
11864.12,11.82396
11866.05,11.76341
11867.98,11.82356
11869.91,11.81994
11871.84,11.74734
11873.76,11.80421
11875.69,11.86867
11877.62,11.81324
11879.55,11.83174
11881.48,11.96593
11883.41,11.90016
11885.34,11.83986
11887.26,11.78267
11889.19,11.74392
11891.12,11.79998
11893.05,11.78992
11894.98,11.72649
11896.91,11.76558
11898.83,11.83096
11900.76,11.84557
11902.69,11.78297
11904.62,11.69966
11906.55,11.54896
11908.48,11.5254
11910.41,11.66689
11912.33,11.66905
11914.26,11.67989
11916.19,11.60324
11918.12,11.58814
11920.05,11.69159
11921.98,11.80248
11923.91,11.65681
11925.83,11.57767
11927.76,11.60539
11929.69,11.68107
11931.62,11.8064
11933.55,11.67864
11935.48,11.69594
11937.41,11.74714
11939.33,11.61593
11941.26,11.72406
11943.19,11.69351
11945.12,11.58278
11947.05,11.56787
11948.98,11.56696
11950.9,11.52115
11952.83,11.60067
11954.76,11.68602
11956.69,11.72808
11958.62,11.69099
11960.55,11.54692
11962.48,11.55337
11964.4,11.7459
11966.33,11.67599
11968.26,11.49366
11970.19,11.55274
11972.12,11.59979
11974.05,11.67374
11975.98,11.74334
11977.9,11.60751
11979.83,11.52314
11981.76,11.63246
11983.69,11.53323
11985.62,11.4405
11987.55,11.51316
11989.47,11.56571
11991.4,11.625
11993.33,11.61955
11995.26,11.58813
11997.19,11.43526
11999.12,11.51933
