Wavenumber,Intensity
3999.706,1.859376
4001.634,1.853976
4003.563,1.851974
4005.491,1.854519
4007.42,1.863416
4009.348,1.866457
4011.277,1.858203
4013.205,1.855569
4015.134,1.858978
4017.062,1.861604
4018.991,1.861283
4020.919,1.86466
4022.848,1.864496
4024.776,1.861902
4026.705,1.862455
4028.633,1.865408
4030.562,1.866524
4032.49,1.866779
4034.419,1.865965
4036.347,1.863127
4038.276,1.861721
4040.204,1.864613
4042.133,1.861323
4044.061,1.864803
4045.99,1.866337
4047.918,1.864856
4049.847,1.865435
4051.775,1.866712
4053.704,1.866721
4055.632,1.865067
4057.561,1.863057
4059.489,1.860071
4061.418,1.861141
4063.346,1.86779
4065.275,1.867354
4067.203,1.86243
4069.132,1.864406
4071.06,1.86875
4072.989,1.870853
4074.917,1.871764
4076.846,1.874573
4078.774,1.878563
4080.703,1.873576
4082.631,1.871846
4084.56,1.872641
4086.488,1.874393
4088.417,1.87688
4090.345,1.876832
4092.274,1.878723
4094.202,1.879349
4096.131,1.879291
4098.059,1.877024
4099.988,1.878034
4101.916,1.880706
4103.845,1.881365
4105.773,1.87906
4107.702,1.878519
4109.63,1.878814
4111.559,1.879232
4113.487,1.879447
4115.416,1.882521
4117.344,1.882229
4119.273,1.8822
4121.201,1.884344
4123.13,1.884768
4125.058,1.882959
4126.987,1.883781
4128.915,1.88672
4130.844,1.883932
4132.772,1.882551
4134.701,1.887726
4136.629,1.885197
4138.558,1.881641
4140.486,1.882678
4142.415,1.885102
4144.343,1.881685
4146.271,1.877606
4148.2,1.88253
4150.129,1.885725
4152.057,1.885752
4153.986,1.883144
4155.914,1.885955
4157.843,1.886738
4159.771,1.883211
4161.7,1.883985
4163.628,1.884194
4165.557,1.884618
4167.485,1.887755
4169.414,1.889895
4171.342,1.88912
4173.271,1.889834
4175.199,1.891062
4177.127,1.895065
4179.056,1.895968
4180.985,1.894288
4182.913,1.89142
4184.842,1.89213
4186.77,1.896515
4188.699,1.899594
4190.627,1.899891
4192.556,1.899944
4194.484,1.903186
4196.413,1.903602
4198.341,1.899127
4200.27,1.899699
4202.198,1.901137
4204.126,1.903746
4206.055,1.904818
4207.983,1.904279
4209.912,1.908377
4211.841,1.910341
4213.769,1.907875
4215.698,1.911688
4217.626,1.916269
4219.555,1.915704
4221.483,1.918788
4223.412,1.918514
4225.34,1.914531
4227.269,1.914039
4229.197,1.917346
4231.125,1.917881
4233.054,1.91698
4234.982,1.918045
4236.911,1.920897
4238.84,1.920185
4240.768,1.916881
4242.697,1.918212
4244.625,1.917991
4246.554,1.918441
4248.482,1.918181
4250.411,1.921742
4252.339,1.925594
4254.268,1.927551
4256.196,1.927722
4258.125,1.927062
4260.053,1.930936
4261.981,1.931448
4263.91,1.931723
4265.838,1.934898
4267.767,1.934918
4269.696,1.933054
4271.624,1.933185
4273.553,1.936917
4275.481,1.935173
4277.41,1.933826
4279.338,1.93686
4281.267,1.93863
4283.195,1.939435
4285.124,1.936658
4287.052,1.935562
4288.98,1.936094
4290.909,1.935383
4292.837,1.935743
4294.766,1.937389
4296.694,1.939592
4298.623,1.938129
4300.552,1.935432
4302.48,1.932942
4304.409,1.93412
4306.337,1.930033
4308.266,1.931105
4310.194,1.932588
4312.123,1.933531
4314.051,1.932967
4315.979,1.931875
4317.908,1.931001
4319.836,1.930257
4321.765,1.933589
4323.693,1.93248
4325.622,1.930627
4327.551,1.930469
4329.479,1.930546
4331.408,1.928475
4333.336,1.928219
4335.265,1.932038
4337.193,1.935734
4339.122,1.938899
4341.05,1.940014
4342.979,1.938477
4344.907,1.938823
4346.835,1.935816
4348.764,1.939044
4350.692,1.942628
4352.621,1.944494
4354.549,1.947835
4356.478,1.947436
4358.407,1.943686
4360.335,1.94365
4362.264,1.942481
4364.192,1.943141
4366.121,1.947075
4368.049,1.948923
4369.978,1.943657
4371.906,1.942992
4373.834,1.94631
4375.763,1.945105
4377.691,1.941422
4379.62,1.941876
4381.548,1.944437
4383.477,1.943146
4385.405,1.940209
4387.334,1.937829
4389.263,1.937501
4391.191,1.938271
4393.12,1.938461
4395.048,1.937003
4396.977,1.935418
4398.905,1.937461
4400.833,1.940075
4402.762,1.942023
4404.69,1.938313
4406.619,1.939396
4408.547,1.944033
4410.476,1.946993
4412.404,1.947602
4414.333,1.947135
4416.262,1.944055
4418.19,1.947053
4420.119,1.952138
4422.047,1.954912
4423.976,1.960441
4425.904,1.967482
4427.833,1.975246
4429.761,1.98581
4431.689,1.998369
4433.618,2.017926
4435.546,2.037623
4437.475,2.060025
4439.403,2.086896
4441.332,2.110403
4443.26,2.132469
4445.189,2.160349
4447.117,2.18333
4449.046,2.205988
4450.975,2.235548
4452.903,2.261384
4454.832,2.282838
4456.76,2.306679
4458.688,2.326145
4460.617,2.344899
4462.545,2.3643
4464.474,2.38175
4466.402,2.40186
4468.331,2.41662
4470.259,2.427077
4472.188,2.439866
4474.116,2.455101
4476.045,2.468305
4477.974,2.478713
4479.902,2.488701
4481.831,2.495522
4483.759,2.503358
4485.688,2.513784
4487.616,2.518913
4489.544,2.525045
4491.473,2.531619
4493.401,2.537854
4495.33,2.541782
4497.258,2.543856
4499.187,2.550647
4501.115,2.558229
4503.044,2.560942
4504.972,2.564337
4506.901,2.570329
4508.83,2.573424
4510.758,2.578033
4512.687,2.585577
4514.615,2.590438
4516.543,2.596144
4518.472,2.605318
4520.4,2.609917
4522.329,2.615054
4524.257,2.618535
4526.186,2.619376
4528.114,2.626193
4530.043,2.631368
4531.971,2.633504
4533.9,2.638202
4535.828,2.645063
4537.757,2.651237
4539.686,2.656176
4541.614,2.656115
4543.542,2.653558
4545.471,2.655398
4547.399,2.656989
4549.328,2.656227
4551.256,2.656687
4553.185,2.658521
4555.113,2.657695
4557.042,2.658437
4558.97,2.66119
4560.899,2.663285
4562.827,2.668911
4564.756,2.673087
4566.685,2.673942
4568.613,2.678136
4570.542,2.689423
4572.47,2.699164
4574.398,2.705989
4576.327,2.718809
4578.255,2.729918
4580.184,2.741378
4582.112,2.760333
4584.041,2.778553
4585.969,2.795907
4587.898,2.812384
4589.826,2.830571
4591.755,2.848436
4593.683,2.871495
4595.612,2.891711
4597.54,2.909813
4599.469,2.926774
4601.397,2.944991
4603.326,2.964228
4605.254,2.979716
4607.183,2.992349
4609.111,3.007458
4611.04,3.021079
4612.968,3.032517
4614.897,3.039464
4616.825,3.048925
4618.754,3.058921
4620.682,3.067564
4622.611,3.076615
4624.539,3.085718
4626.468,3.095086
4628.396,3.100863
4630.325,3.108025
4632.253,3.113082
4634.182,3.121228
4636.11,3.132333
4638.039,3.139068
4639.967,3.145478
4641.896,3.160293
4643.824,3.173863
4645.753,3.1831
4647.681,3.19293
4649.61,3.207227
4651.538,3.22047
4653.467,3.230202
4655.396,3.239698
4657.324,3.254164
4659.252,3.264751
4661.181,3.278989
4663.109,3.292297
4665.038,3.303695
4666.966,3.314988
4668.895,3.329506
4670.823,3.341223
4672.752,3.350839
4674.68,3.359174
4676.609,3.369008
4678.537,3.378533
4680.466,3.386432
4682.394,3.394144
4684.323,3.400897
4686.251,3.403932
4688.18,3.40909
4690.108,3.410924
4692.037,3.411559
4693.965,3.415634
4695.894,3.423423
4697.822,3.424599
4699.751,3.428644
4701.679,3.434298
4703.608,3.438385
4705.536,3.444485
4707.465,3.446541
4709.393,3.449083
4711.322,3.452225
4713.25,3.455918
4715.179,3.457639
4717.107,3.45686
4719.036,3.457855
4720.964,3.458758
4722.893,3.454905
4724.821,3.454467
4726.75,3.457306
4728.678,3.456859
4730.606,3.458102
4732.535,3.461542
4734.464,3.465638
4736.392,3.468589
4738.321,3.471594
4740.249,3.476142
4742.178,3.480033
4744.106,3.479612
4746.035,3.478777
4747.963,3.477806
4749.892,3.476495
4751.82,3.471123
4753.749,3.465571
4755.677,3.461201
4757.605,3.458913
4759.534,3.454502
4761.463,3.44628
4763.391,3.43595
4765.32,3.43002
4767.248,3.429453
4769.177,3.426513
4771.105,3.421163
4773.034,3.414768
4774.962,3.407689
4776.891,3.402354
4778.819,3.396416
4780.748,3.392017
4782.676,3.387592
4784.604,3.383607
4786.533,3.378513
4788.462,3.371572
4790.39,3.364976
4792.319,3.36628
4794.247,3.36766
4796.176,3.36944
4798.104,3.368488
4800.033,3.370171
4801.961,3.369217
4803.89,3.367229
4805.818,3.372443
4807.747,3.37482
4809.675,3.37311
4811.604,3.370391
4813.532,3.370445
4815.46,3.373588
4817.389,3.377157
4819.317,3.379186
4821.246,3.380058
4823.175,3.378883
4825.103,3.383088
4827.032,3.389284
4828.96,3.389798
4830.889,3.389673
4832.817,3.390275
4834.746,3.390143
4836.674,3.38758
4838.603,3.385889
4840.531,3.383354
4842.459,3.380363
4844.388,3.379351
4846.316,3.37884
4848.245,3.379184
4850.174,3.38182
4852.102,3.383083
4854.031,3.385482
4855.959,3.390382
4857.888,3.393979
4859.816,3.397887
4861.745,3.40358
4863.673,3.408839
4865.602,3.412643
4867.53,3.416056
4869.458,3.422093
4871.387,3.429882
4873.315,3.434628
4875.244,3.439995
4877.172,3.444977
4879.101,3.451592
4881.03,3.450385
4882.958,3.45141
4884.887,3.454214
4886.815,3.456311
4888.744,3.459156
4890.672,3.463575
4892.601,3.464858
4894.529,3.467389
4896.458,3.468904
4898.386,3.467717
4900.314,3.468436
4902.243,3.464429
4904.171,3.460017
4906.1,3.459837
4908.028,3.459067
4909.957,3.455792
4911.886,3.450879
4913.814,3.445691
4915.743,3.440446
4917.671,3.43546
4919.6,3.435832
4921.528,3.436696
4923.457,3.433483
4925.385,3.430915
4927.313,3.432042
4929.242,3.431316
4931.17,3.428847
4933.099,3.423932
4935.027,3.421068
4936.956,3.420388
4938.885,3.417347
4940.813,3.414578
4942.742,3.411295
4944.67,3.407495
4946.599,3.404406
4948.527,3.399451
4950.456,3.392937
4952.384,3.388135
4954.313,3.381875
4956.241,3.374828
4958.169,3.370994
4960.098,3.365166
4962.026,3.357438
4963.955,3.353024
4965.883,3.348886
4967.812,3.346573
4969.74,3.342203
4971.669,3.339495
4973.598,3.335311
4975.526,3.331697
4977.455,3.324952
4979.383,3.31753
4981.312,3.313226
4983.24,3.310436
4985.168,3.304354
4987.097,3.293821
4989.025,3.286226
4990.954,3.284249
4992.882,3.277626
4994.811,3.268564
4996.739,3.260771
4998.668,3.253223
5000.597,3.245311
5002.525,3.23528
5004.454,3.222432
5006.382,3.213349
5008.311,3.202858
5010.239,3.19281
5012.167,3.181361
5014.096,3.172158
5016.024,3.160287
5017.953,3.145843
5019.881,3.134057
5021.81,3.120885
5023.738,3.106269
5025.667,3.093275
5027.596,3.081297
5029.524,3.071464
5031.452,3.0638
5033.381,3.05245
5035.31,3.041363
5037.238,3.034825
5039.167,3.031828
5041.095,3.026545
5043.023,3.016881
5044.952,3.009553
5046.88,3.005381
5048.809,3.002628
5050.737,2.997939
5052.666,2.994876
5054.595,2.996126
5056.523,2.996361
5058.451,2.993505
5060.38,2.994077
5062.309,2.997717
5064.237,2.994732
5066.166,2.993107
5068.094,2.994958
5070.022,2.997584
5071.951,3.000119
5073.879,3.002467
5075.808,3.005104
5077.736,3.00997
5079.665,3.015645
5081.593,3.02124
5083.522,3.026417
5085.45,3.03334
5087.379,3.036705
5089.308,3.039812
5091.236,3.041938
5093.165,3.042277
5095.093,3.045262
5097.021,3.047314
5098.95,3.04821
5100.878,3.051003
5102.807,3.056534
5104.735,3.061934
5106.664,3.065879
5108.592,3.066931
5110.521,3.071566
5112.449,3.077484
5114.378,3.077715
5116.307,3.079286
5118.235,3.086867
5120.163,3.088228
5122.092,3.085773
5124.021,3.085844
5125.949,3.087744
5127.877,3.086747
5129.806,3.086097
5131.734,3.086785
5133.663,3.086251
5135.591,3.083064
5137.52,3.077411
5139.448,3.076925
5141.377,3.081408
5143.305,3.08257
5145.234,3.081608
5147.162,3.081061
5149.091,3.082809
5151.02,3.08404
5152.948,3.084271
5154.876,3.086664
5156.805,3.088942
5158.733,3.088319
5160.662,3.085261
5162.59,3.086921
5164.519,3.084401
5166.447,3.082726
5168.376,3.084897
5170.304,3.085942
5172.233,3.08521
5174.161,3.089188
5176.09,3.091756
5178.019,3.090093
5179.947,3.09139
5181.875,3.095034
5183.804,3.099449
5185.732,3.096197
5187.661,3.091429
5189.589,3.08892
5191.518,3.086962
5193.446,3.08216
5195.375,3.079091
5197.303,3.073138
5199.232,3.05934
5201.16,3.052184
5203.089,3.048452
5205.018,3.053713
5206.946,3.041128
5208.874,3.023829
5210.803,3.012133
5212.731,3.007587
5214.66,3.006669
5216.588,3.011443
5218.517,3.008976
5220.445,3.007947
5222.374,3.017959
5224.302,3.032339
5226.231,3.028816
5228.159,3.024151
5230.088,3.030602
5232.016,3.034083
5233.945,3.035762
5235.873,3.040293
5237.802,3.045182
5239.73,3.043267
5241.659,3.051336
5243.587,3.060541
5245.516,3.058391
5247.444,3.054063
5249.373,3.03913
5251.301,3.039151
5253.229,3.044844
5255.158,3.035213
5257.087,3.021333
5259.015,3.021888
5260.944,3.025081
5262.872,3.026233
5264.801,3.013959
5266.729,3.00648
5268.658,3.005
5270.586,2.99442
5272.515,2.991923
5274.443,2.990648
5276.372,2.986408
5278.3,2.989457
5280.229,2.98963
5282.157,2.985651
5284.086,2.98905
5286.014,2.986336
5287.943,2.99176
5289.871,2.998615
5291.8,2.989855
5293.729,2.988089
5295.657,2.989783
5297.585,2.99661
5299.514,3.000667
5301.442,3.002923
5303.371,3.004474
5305.299,3.011367
5307.228,3.012444
5309.156,3.008188
5311.085,3.008066
5313.013,3.008331
5314.941,3.012565
5316.87,3.016807
5318.799,3.017212
5320.727,3.016443
5322.656,3.018674
5324.584,3.025666
5326.513,3.032711
5328.441,3.022876
5330.37,3.024856
5332.298,3.026718
5334.227,3.029073
5336.155,3.046039
5338.084,3.050833
5340.012,3.040241
5341.94,3.051652
5343.869,3.063394
5345.798,3.052584
5347.726,3.055784
5349.655,3.057366
5351.583,3.072584
5353.512,3.076691
5355.44,3.064505
5357.369,3.061325
5359.297,3.063524
5361.226,3.06777
5363.154,3.06564
5365.083,3.056067
5367.011,3.050565
5368.939,3.039304
5370.868,3.029649
5372.797,3.02402
5374.725,3.018346
5376.654,3.003478
5378.582,2.977926
5380.511,2.965953
5382.439,2.957812
5384.368,2.950932
5386.296,2.92952
5388.225,2.913557
5390.153,2.905871
5392.082,2.904291
5394.01,2.889655
5395.938,2.876952
5397.867,2.865674
5399.796,2.851372
5401.724,2.84354
5403.652,2.830666
5405.581,2.817945
5407.51,2.809503
5409.438,2.800669
5411.367,2.784667
5413.295,2.766656
5415.224,2.73175
5417.152,2.712238
5419.081,2.696924
5421.009,2.686069
5422.938,2.673711
5424.866,2.661901
5426.795,2.65773
5428.723,2.6465
5430.651,2.623207
5432.58,2.622936
5434.509,2.61102
5436.437,2.590877
5438.366,2.592049
5440.294,2.589491
5442.223,2.56761
5444.151,2.561219
5446.08,2.545571
5448.008,2.537761
5449.937,2.525862
5451.865,2.51132
5453.793,2.505744
5455.722,2.499783
5457.65,2.49187
5459.579,2.491991
5461.508,2.483434
5463.436,2.477674
5465.365,2.475292
5467.293,2.475659
5469.222,2.469649
5471.15,2.461852
5473.079,2.4662
5475.007,2.463011
5476.936,2.452398
5478.864,2.455189
5480.792,2.452939
5482.721,2.45001
5484.649,2.451132
5486.578,2.456118
5488.507,2.452806
5490.435,2.453723
5492.363,2.45901
5494.292,2.453503
5496.221,2.455208
5498.149,2.455762
5500.078,2.453192
5502.006,2.459009
5503.935,2.463632
5505.863,2.468835
5507.792,2.469783
5509.72,2.466594
5511.648,2.467218
5513.577,2.469192
5515.505,2.476249
5517.434,2.47605
5519.362,2.475675
5521.291,2.479182
5523.22,2.478334
5525.148,2.475956
5527.077,2.47998
5529.005,2.481517
5530.934,2.483186
5532.862,2.487578
5534.791,2.49126
5536.719,2.491248
5538.647,2.491381
5540.576,2.493649
5542.504,2.499547
5544.433,2.503413
5546.361,2.507646
5548.29,2.509708
5550.219,2.512188
5552.147,2.512831
5554.076,2.51493
5556.004,2.517264
5557.933,2.519239
5559.861,2.520199
5561.79,2.520873
5563.718,2.522933
5565.646,2.523588
5567.575,2.524858
5569.503,2.525857
5571.432,2.52687
5573.36,2.528594
5575.289,2.527915
5577.218,2.525421
5579.146,2.523494
5581.074,2.525435
5583.003,2.530257
5584.932,2.5336
5586.86,2.531587
5588.789,2.530995
5590.717,2.530944
5592.646,2.528257
5594.574,2.527763
5596.502,2.529323
5598.431,2.522412
5600.359,2.514664
5602.288,2.509787
5604.216,2.503941
5606.145,2.495821
5608.073,2.485703
5610.002,2.477767
5611.931,2.466076
5613.859,2.451699
5615.788,2.440776
5617.716,2.429457
5619.645,2.418104
5621.573,2.40993
5623.501,2.39835
5625.43,2.387081
5627.358,2.381887
5629.287,2.378255
5631.215,2.368041
5633.144,2.360464
5635.072,2.35496
5637.001,2.347879
5638.93,2.339517
5640.858,2.328377
5642.786,2.318444
5644.715,2.308137
5646.644,2.30174
5648.572,2.295764
5650.5,2.290117
5652.429,2.289525
5654.357,2.288711
5656.286,2.28888
5658.214,2.287924
5660.143,2.286076
5662.071,2.283007
5664.0,2.284899
5665.929,2.285901
5667.857,2.285013
5669.785,2.286897
5671.714,2.286542
5673.643,2.286128
5675.571,2.287404
5677.5,2.287234
5679.428,2.285966
5681.356,2.283511
5683.285,2.283831
5685.213,2.28664
5687.142,2.285403
5689.07,2.283668
5690.999,2.281824
5692.927,2.282419
5694.856,2.281709
5696.784,2.278812
5698.713,2.276895
5700.642,2.273885
5702.57,2.270064
5704.499,2.267564
5706.427,2.268551
5708.355,2.266967
5710.284,2.266776
5712.212,2.265691
5714.141,2.264901
5716.069,2.261577
5717.998,2.260317
5719.926,2.256613
5721.855,2.248755
5723.783,2.244861
5725.712,2.240441
5727.641,2.232733
5729.569,2.222595
5731.497,2.210055
5733.426,2.196858
5735.354,2.182916
5737.283,2.165052
5739.211,2.148058
5741.14,2.134544
5743.068,2.123999
5744.997,2.113897
5746.925,2.101092
5748.854,2.085967
5750.782,2.078047
5752.711,2.072402
5754.639,2.071169
5756.568,2.069301
5758.496,2.066513
5760.425,2.069463
5762.354,2.071406
5764.282,2.072109
5766.21,2.077059
5768.139,2.077604
5770.067,2.077014
5771.996,2.079397
5773.924,2.080843
5775.853,2.081064
5777.781,2.078911
5779.71,2.07564
5781.638,2.070694
5783.567,2.070219
5785.495,2.066773
5787.424,2.059009
5789.353,2.054294
5791.281,2.056155
5793.209,2.05518
5795.138,2.050652
5797.066,2.052233
5798.995,2.05425
5800.923,2.052713
5802.852,2.05295
5804.78,2.056507
5806.709,2.062339
5808.637,2.06736
5810.566,2.074176
5812.494,2.085055
5814.423,2.094586
5816.352,2.099394
5818.28,2.107726
5820.208,2.108843
5822.137,2.113337
5824.065,2.118806
5825.994,2.121674
5827.922,2.119545
5829.851,2.117402
5831.779,2.115411
5833.708,2.113945
5835.636,2.109777
5837.565,2.104411
5839.493,2.100591
5841.422,2.095084
5843.35,2.091193
5845.279,2.086171
5847.207,2.08217
5849.136,2.078807
5851.064,2.073995
5852.993,2.070934
5854.921,2.06533
5856.85,2.063962
5858.778,2.0666
5860.707,2.071124
5862.635,2.073539
5864.563,2.069605
5866.492,2.073146
5868.421,2.086029
5870.349,2.097467
5872.278,2.108245
5874.206,2.122846
5876.135,2.139257
5878.063,2.154456
5879.992,2.169745
5881.92,2.185185
5883.849,2.198466
5885.777,2.201681
5887.706,2.199263
5889.634,2.197205
5891.563,2.195738
5893.491,2.19907
5895.42,2.202982
5897.348,2.206931
5899.277,2.207683
5901.205,2.202671
5903.134,2.196009
5905.063,2.192183
5906.991,2.18785
5908.919,2.186322
5910.848,2.197585
5912.776,2.227238
5914.705,2.271465
5916.633,2.331732
5918.562,2.411787
5920.49,2.513705
5922.419,2.632766
5924.347,2.767466
5926.276,2.912116
5928.204,3.060134
5930.133,3.211272
5932.061,3.368872
5933.99,3.526941
5935.918,3.678238
5937.847,3.82506
5939.775,3.967536
5941.704,4.1054
5943.632,4.238785
5945.561,4.363306
5947.489,4.481653
5949.418,4.594779
5951.346,4.700245
5953.274,4.797733
5955.203,4.889947
5957.132,4.977265
5959.06,5.060497
5960.989,5.141285
5962.917,5.213723
5964.846,5.28156
5966.774,5.350907
5968.703,5.413786
5970.631,5.471688
5972.56,5.527817
5974.488,5.582793
5976.417,5.632275
5978.345,5.678814
5980.273,5.71915
5982.202,5.761869
5984.131,5.803563
5986.059,5.843066
5987.988,5.874646
5989.916,5.907243
5991.845,5.931431
5993.773,5.953623
5995.702,5.976206
5997.63,5.999487
5999.559,6.01884
6001.487,6.039028
6003.416,6.05571
6005.344,6.07405
6007.272,6.092844
6009.201,6.110451
6011.13,6.126148
6013.058,6.141406
6014.986,6.156238
6016.915,6.173281
6018.844,6.188639
6020.772,6.205337
6022.701,6.219466
6024.629,6.234963
6026.558,6.24574
6028.486,6.259512
6030.415,6.272154
6032.343,6.280757
6034.271,6.286785
6036.2,6.293292
6038.129,6.30139
6040.057,6.303603
6041.985,6.304952
6043.914,6.310038
6045.843,6.312834
6047.771,6.314076
6049.7,6.313036
6051.628,6.313909
6053.557,6.312131
6055.485,6.316757
6057.414,6.317548
6059.342,6.316572
6061.271,6.313981
6063.199,6.314193
6065.128,6.310932
6067.056,6.312282
6068.984,6.314124
6070.913,6.311613
6072.842,6.307481
6074.77,6.30691
6076.698,6.309161
6078.627,6.30799
6080.556,6.303701
6082.484,6.304004
6084.413,6.303316
6086.341,6.305169
6088.27,6.303175
6090.198,6.303315
6092.126,6.303335
6094.055,6.304196
6095.983,6.309032
6097.912,6.31448
6099.841,6.319417
6101.769,6.326042
6103.697,6.333189
6105.626,6.343437
6107.555,6.352763
6109.483,6.365004
6111.412,6.374018
6113.34,6.384283
6115.269,6.400502
6117.197,6.417371
6119.125,6.430284
6121.054,6.446751
6122.982,6.460891
6124.911,6.480659
6126.84,6.496868
6128.768,6.517038
6130.696,6.542029
6132.625,6.560776
6134.554,6.584908
6136.482,6.612246
6138.41,6.638809
6140.339,6.672344
6142.268,6.700913
6144.196,6.735546
6146.125,6.768097
6148.053,6.803813
6149.981,6.839156
6151.91,6.880751
6153.839,6.924628
6155.767,6.969504
6157.695,7.012378
6159.624,7.057253
6161.553,7.103279
6163.481,7.152412
6165.409,7.196821
6167.338,7.241864
6169.267,7.291782
6171.195,7.342278
6173.124,7.388788
6175.052,7.43693
6176.98,7.476909
6178.909,7.517984
6180.837,7.558675
6182.766,7.599705
6184.694,7.635899
6186.623,7.668645
6188.552,7.698437
6190.48,7.733098
6192.408,7.763947
6194.337,7.790777
6196.266,7.812465
6198.194,7.835247
6200.123,7.848616
6202.051,7.865609
6203.979,7.882245
6205.908,7.895415
6207.836,7.906339
6209.765,7.91482
6211.693,7.920755
6213.622,7.932753
6215.551,7.945818
6217.479,7.962598
6219.407,7.97514
6221.336,7.989241
6223.265,8.004412
6225.193,8.017698
6227.121,8.030046
6229.05,8.04679
6230.979,8.059306
6232.907,8.067007
6234.835,8.074766
6236.764,8.090382
6238.692,8.100508
6240.621,8.112573
6242.549,8.126148
6244.478,8.138371
6246.406,8.152407
6248.335,8.172149
6250.264,8.191108
6252.192,8.206252
6254.12,8.219411
6256.049,8.239009
6257.978,8.26252
6259.906,8.285874
6261.834,8.302592
6263.763,8.321074
6265.691,8.337953
6267.62,8.360187
6269.548,8.37942
6271.477,8.397553
6273.405,8.408657
6275.334,8.420824
6277.263,8.434233
6279.191,8.4481
6281.119,8.462076
6283.048,8.477054
6284.977,8.487626
6286.905,8.496491
6288.833,8.504975
6290.762,8.5144
6292.69,8.524744
6294.619,8.535765
6296.547,8.541282
6298.476,8.550488
6300.404,8.560314
6302.333,8.571402
6304.262,8.581916
6306.19,8.588198
6308.118,8.596295
6310.047,8.608641
6311.976,8.620405
6313.904,8.637062
6315.832,8.652261
6317.761,8.666781
6319.689,8.678665
6321.618,8.697497
6323.546,8.716487
6325.475,8.730069
6327.403,8.741757
6329.332,8.757401
6331.26,8.770665
6333.189,8.784754
6335.117,8.799459
6337.046,8.814569
6338.975,8.827572
6340.903,8.839458
6342.831,8.849485
6344.76,8.860108
6346.688,8.869949
6348.617,8.882895
6350.545,8.894375
6352.474,8.901696
6354.402,8.904769
6356.331,8.910557
6358.259,8.920054
6360.188,8.928614
6362.116,8.932734
6364.045,8.938455
6365.974,8.943751
6367.902,8.948818
6369.83,8.956095
6371.759,8.963794
6373.688,8.973991
6375.616,8.984046
6377.544,8.990851
6379.473,9.001848
6381.401,9.009151
6383.33,9.018398
6385.258,9.029449
6387.187,9.03538
6389.115,9.042057
6391.044,9.05514
6392.973,9.063252
6394.901,9.071504
6396.829,9.07986
6398.758,9.085562
6400.687,9.092069
6402.615,9.0991
6404.543,9.100589
6406.472,9.10649
6408.4,9.108801
6410.329,9.113342
6412.257,9.112933
6414.186,9.107431
6416.114,9.110624
6418.043,9.119811
6419.971,9.116035
6421.9,9.110364
6423.828,9.107973
6425.757,9.109231
6427.686,9.110228
6429.614,9.107976
6431.542,9.103195
6433.471,9.105409
6435.399,9.107271
6437.328,9.112149
6439.256,9.11064
6441.185,9.113182
6443.113,9.109721
6445.042,9.107033
6446.97,9.1058
6448.898,9.10817
6450.827,9.102799
6452.756,9.099003
6454.685,9.101356
6456.613,9.103505
6458.541,9.103847
6460.47,9.101254
6462.398,9.095368
6464.327,9.090765
6466.255,9.089272
6468.184,9.08966
6470.112,9.085305
6472.041,9.0847
6473.969,9.077318
6475.897,9.072229
6477.826,9.071672
6479.755,9.069537
6481.684,9.064768
6483.612,9.063218
6485.54,9.05863
6487.469,9.051851
6489.397,9.04748
6491.326,9.046999
6493.254,9.042372
6495.183,9.035046
6497.111,9.022459
6499.04,9.013622
6500.968,9.004179
6502.896,8.995603
6504.825,8.987292
6506.754,8.971594
6508.682,8.956514
6510.61,8.943425
6512.539,8.929289
6514.468,8.92057
6516.396,8.908203
6518.325,8.892379
6520.253,8.87532
6522.182,8.864694
6524.11,8.851372
6526.039,8.835701
6527.967,8.820863
6529.896,8.803671
6531.824,8.785347
6533.753,8.770004
6535.681,8.746969
6537.609,8.727221
6539.538,8.708097
6541.467,8.686038
6543.396,8.667802
6545.324,8.650454
6547.252,8.63361
6549.181,8.616493
6551.109,8.588786
6553.038,8.56573
6554.966,8.547371
6556.895,8.528982
6558.823,8.503303
6560.752,8.475292
6562.68,8.445447
6564.608,8.416441
6566.537,8.381765
6568.466,8.357141
6570.394,8.329802
6572.323,8.2981
6574.251,8.268766
6576.18,8.242167
6578.108,8.214527
6580.037,8.19017
6581.965,8.165873
6583.894,8.148794
6585.822,8.129016
6587.751,8.105722
6589.679,8.091204
6591.607,8.075676
6593.536,8.060452
6595.465,8.045596
6597.393,8.031262
6599.321,8.015574
6601.25,7.997193
6603.179,7.978426
6605.107,7.961091
6607.036,7.949254
6608.964,7.934073
6610.893,7.917266
6612.821,7.903592
6614.75,7.888741
6616.678,7.871016
6618.606,7.851614
6620.535,7.832701
6622.464,7.817198
6624.392,7.795246
6626.32,7.772746
6628.249,7.753295
6630.178,7.732614
6632.106,7.707993
6634.035,7.689466
6635.963,7.661448
6637.892,7.634331
6639.82,7.607902
6641.749,7.579287
6643.677,7.550307
6645.605,7.524419
6647.534,7.498832
6649.463,7.471693
6651.391,7.438734
6653.319,7.413512
6655.248,7.384116
6657.177,7.355556
6659.105,7.327562
6661.034,7.295023
6662.962,7.264861
6664.891,7.23222
6666.819,7.199194
6668.748,7.169338
6670.676,7.13795
6672.604,7.107728
6674.533,7.07762
6676.462,7.046975
6678.39,7.014997
6680.318,6.987304
6682.247,6.961351
6684.176,6.936254
6686.104,6.913839
6688.032,6.888484
6689.961,6.866485
6691.89,6.848811
6693.818,6.830124
6695.747,6.809782
6697.675,6.791891
6699.604,6.775621
6701.532,6.766972
6703.46,6.760003
6705.389,6.74719
6707.317,6.738557
6709.246,6.730589
6711.175,6.723095
6713.103,6.723423
6715.031,6.718643
6716.96,6.715149
6718.889,6.716686
6720.817,6.715251
6722.746,6.707139
6724.674,6.703012
6726.603,6.700373
6728.531,6.69557
6730.459,6.693648
6732.388,6.689309
6734.316,6.686335
6736.245,6.681565
6738.174,6.678082
6740.102,6.669997
6742.03,6.660674
6743.959,6.652688
6745.888,6.649625
6747.816,6.64532
6749.745,6.642371
6751.673,6.636522
6753.602,6.629618
6755.53,6.621662
6757.458,6.61829
6759.387,6.619506
6761.315,6.614867
6763.244,6.607403
6765.173,6.606498
6767.101,6.599022
6769.029,6.594471
6770.958,6.590116
6772.887,6.575301
6774.815,6.567477
6776.743,6.562123
6778.672,6.549989
6780.601,6.531685
6782.529,6.512193
6784.458,6.499043
6786.386,6.486084
6788.314,6.471769
6790.243,6.450526
6792.171,6.428507
6794.1,6.406453
6796.028,6.387357
6797.957,6.370502
6799.886,6.343814
6801.814,6.31936
6803.742,6.302757
6805.671,6.28489
6807.6,6.262798
6809.528,6.247364
6811.457,6.232545
6813.385,6.213729
6815.313,6.192621
6817.242,6.172795
6819.17,6.156234
6821.099,6.148721
6823.027,6.13723
6824.956,6.125798
6826.885,6.116878
6828.813,6.105303
6830.741,6.095044
6832.67,6.085392
6834.599,6.073716
6836.527,6.065433
6838.455,6.051953
6840.384,6.03651
6842.313,6.025409
6844.241,6.003366
6846.169,5.987189
6848.098,5.970331
6850.026,5.952182
6851.955,5.931179
6853.884,5.909914
6855.812,5.890476
6857.74,5.876118
6859.669,5.86308
6861.598,5.851118
6863.526,5.83643
6865.454,5.822878
6867.383,5.816522
6869.312,5.803214
6871.24,5.792929
6873.168,5.785356
6875.097,5.772663
6877.025,5.767735
6878.954,5.752932
6880.882,5.736006
6882.811,5.721258
6884.739,5.702476
6886.668,5.682858
6888.597,5.663549
6890.525,5.641958
6892.453,5.61523
6894.382,5.589941
6896.311,5.562613
6898.239,5.534201
6900.167,5.509564
6902.096,5.485948
6904.024,5.468097
6905.953,5.451212
6907.881,5.434405
6909.81,5.421566
6911.738,5.410731
6913.667,5.393833
6915.596,5.388256
6917.524,5.383283
6919.452,5.364629
6921.381,5.352381
6923.31,5.344435
6925.238,5.331511
6927.166,5.316352
6929.095,5.299803
6931.023,5.281027
6932.952,5.260364
6934.88,5.241529
6936.809,5.21854
6938.737,5.197773
6940.666,5.180857
6942.594,5.162462
6944.523,5.147162
6946.451,5.134921
6948.38,5.125395
6950.309,5.116373
6952.237,5.111084
6954.165,5.115536
6956.094,5.111881
6958.022,5.10307
6959.951,5.098243
6961.879,5.098077
6963.808,5.084195
6965.736,5.066375
6967.665,5.050934
6969.593,5.041068
6971.521,5.02649
6973.45,5.0123
6975.379,4.996433
6977.308,4.983337
6979.236,4.97455
6981.164,4.967755
6983.093,4.956519
6985.021,4.948067
6986.95,4.936357
6988.878,4.933142
6990.807,4.933474
6992.735,4.923752
6994.664,4.915158
6996.592,4.916923
6998.521,4.91632
7000.449,4.91434
7002.378,4.916774
7004.307,4.920058
7006.235,4.921323
7008.163,4.920371
7010.092,4.926952
7012.021,4.936796
7013.949,4.942561
7015.877,4.947278
7017.806,4.951378
7019.734,4.949362
7021.663,4.945987
7023.591,4.938807
7025.52,4.931042
7027.448,4.91744
7029.377,4.898093
7031.305,4.876705
7033.234,4.852399
7035.162,4.826108
7037.091,4.796246
7039.02,4.766437
7040.948,4.738272
7042.876,4.707413
7044.805,4.681252
7046.733,4.654367
7048.662,4.621418
7050.59,4.592556
7052.519,4.567856
7054.447,4.539194
7056.376,4.511414
7058.304,4.486355
7060.232,4.466744
7062.161,4.45269
7064.09,4.436295
7066.019,4.432435
7067.947,4.427532
7069.875,4.419134
7071.804,4.415266
7073.732,4.414097
7075.661,4.411889
7077.589,4.409368
7079.518,4.415753
7081.446,4.424846
7083.375,4.434722
7085.303,4.451835
7087.231,4.47307
7089.16,4.493583
7091.089,4.521324
7093.018,4.555475
7094.946,4.581978
7096.874,4.600963
7098.803,4.624372
7100.731,4.646083
7102.66,4.653334
7104.588,4.662962
7106.517,4.664688
7108.445,4.654861
7110.374,4.633648
7112.302,4.615158
7114.23,4.599775
7116.159,4.587871
7118.088,4.552054
7120.016,4.512324
7121.944,4.473261
7123.873,4.440463
7125.802,4.405021
7127.73,4.361598
7129.659,4.320117
7131.587,4.274169
7133.516,4.237953
7135.444,4.205732
7137.373,4.169876
7139.301,4.126144
7141.229,4.082922
7143.158,4.047027
7145.087,4.007889
7147.015,3.96302
7148.943,3.928242
7150.872,3.89256
7152.801,3.859129
7154.729,3.831641
7156.658,3.806742
7158.586,3.794756
7160.515,3.791003
7162.443,3.783581
7164.372,3.799127
7166.3,3.820473
7168.229,3.841708
7170.157,3.866706
7172.086,3.896978
7174.014,3.928775
7175.942,3.974973
7177.871,4.016478
7179.8,4.053716
7181.729,4.0969
7183.657,4.129625
7185.585,4.161044
7187.514,4.18757
7189.442,4.213816
7191.371,4.237588
7193.299,4.261959
7195.228,4.277839
7197.156,4.292316
7199.085,4.303903
7201.013,4.317093
7202.941,4.326515
7204.87,4.323719
7206.799,4.316361
7208.727,4.318088
7210.655,4.316422
7212.584,4.310418
7214.513,4.298512
7216.441,4.293292
7218.37,4.302896
7220.298,4.296712
7222.227,4.284323
7224.155,4.30115
7226.083,4.322896
7228.012,4.343058
7229.94,4.388822
7231.869,4.435881
7233.798,4.4656
7235.726,4.512249
7237.654,4.562078
7239.583,4.625734
7241.512,4.6822
7243.44,4.709158
7245.369,4.737904
7247.297,4.768311
7249.226,4.79246
7251.154,4.819793
7253.083,4.841582
7255.011,4.853898
7256.939,4.871866
7258.868,4.893433
7260.797,4.922847
7262.725,4.946028
7264.653,4.96626
7266.582,4.99538
7268.511,5.016256
7270.439,5.047474
7272.368,5.084653
7274.296,5.116676
7276.225,5.142206
7278.153,5.178108
7280.082,5.219932
7282.01,5.253943
7283.938,5.289165
7285.867,5.333555
7287.796,5.372739
7289.724,5.3971
7291.652,5.433271
7293.581,5.478893
7295.51,5.501293
7297.438,5.531317
7299.366,5.565665
7301.295,5.593963
7303.224,5.632613
7305.152,5.68122
7307.081,5.71815
7309.009,5.750899
7310.938,5.79508
7312.866,5.821818
7314.794,5.849323
7316.723,5.870875
7318.651,5.893279
7320.58,5.924495
7322.509,5.965304
7324.437,5.994368
7326.365,6.029569
7328.294,6.048041
7330.223,6.051429
7332.151,6.060887
7334.08,6.075945
7336.008,6.089164
7337.937,6.118561
7339.865,6.132327
7341.793,6.136004
7343.722,6.162091
7345.65,6.193966
7347.579,6.228621
7349.508,6.265677
7351.436,6.317295
7353.364,6.387514
7355.293,6.468516
7357.222,6.548702
7359.15,6.658052
7361.079,6.79108
7363.007,6.930303
7364.936,7.065224
7366.864,7.218516
7368.792,7.368859
7370.721,7.512727
7372.649,7.658394
7374.578,7.820556
7376.507,7.958036
7378.435,8.093939
7380.363,8.235267
7382.292,8.35753
7384.221,8.468596
7386.149,8.582829
7388.077,8.687698
7390.006,8.790304
7391.935,8.888832
7393.863,8.978862
7395.792,9.054875
7397.72,9.130359
7399.648,9.192
7401.577,9.258919
7403.505,9.324323
7405.434,9.379001
7407.362,9.422294
7409.291,9.464194
7411.22,9.509378
7413.148,9.554176
7415.076,9.594337
7417.005,9.629717
7418.934,9.668818
7420.862,9.701385
7422.791,9.722686
7424.719,9.749197
7426.647,9.777884
7428.576,9.801823
7430.504,9.820841
7432.433,9.839861
7434.361,9.86281
7436.29,9.885289
7438.219,9.898691
7440.147,9.909369
7442.075,9.923034
7444.004,9.938958
7445.933,9.947293
7447.861,9.960357
7449.789,9.979385
7451.718,9.994209
7453.646,9.995628
7455.575,10.0031
7457.503,10.00484
7459.432,10.02217
7461.36,10.03636
7463.289,10.03774
7465.218,10.0444
7467.146,10.05073
7469.074,10.05357
7471.003,10.05801
7472.932,10.0607
7474.86,10.07147
7476.788,10.08022
7478.717,10.08973
7480.646,10.09451
7482.574,10.09631
7484.502,10.10016
7486.431,10.10622
7488.359,10.10613
7490.288,10.1112
7492.216,10.1122
7494.145,10.12016
7496.073,10.12749
7498.002,10.12383
7499.931,10.12225
7501.859,10.13246
7503.787,10.1338
7505.716,10.13774
7507.645,10.14077
7509.573,10.14002
7511.501,10.14441
7513.43,10.14788
7515.358,10.15099
7517.287,10.15542
7519.215,10.15762
7521.144,10.16155
7523.072,10.16344
7525.001,10.17127
7526.93,10.17597
7528.858,10.17451
7530.786,10.17158
7532.715,10.17407
7534.644,10.17884
7536.572,10.18528
7538.5,10.18455
7540.429,10.1807
7542.357,10.18316
7544.286,10.18873
7546.214,10.18806
7548.143,10.19141
7550.071,10.19707
7552.0,10.19056
7553.928,10.18939
7555.857,10.19401
7557.785,10.19431
7559.714,10.19036
7561.643,10.18879
7563.571,10.18813
7565.499,10.18861
7567.428,10.18476
7569.356,10.1831
7571.285,10.18271
7573.213,10.1804
7575.142,10.18414
7577.07,10.18193
7578.999,10.18212
7580.927,10.18444
7582.855,10.191
7584.784,10.18997
7586.713,10.19068
7588.642,10.17981
7590.57,10.17339
7592.498,10.17662
7594.427,10.17663
7596.355,10.17543
7598.284,10.17256
7600.212,10.16989
7602.141,10.17093
7604.069,10.16241
7605.998,10.15485
7607.926,10.15482
7609.854,10.15312
7611.783,10.1536
7613.712,10.15485
7615.641,10.1528
7617.569,10.15111
7619.497,10.14823
7621.426,10.14025
7623.354,10.13539
7625.283,10.13819
7627.211,10.13502
7629.14,10.13793
7631.068,10.13198
7632.997,10.1293
7634.925,10.1329
7636.854,10.13078
7638.782,10.1269
7640.711,10.12343
7642.639,10.12133
7644.568,10.11377
7646.496,10.1095
7648.425,10.11118
7650.354,10.11591
7652.282,10.10986
7654.21,10.09518
7656.139,10.08956
7658.067,10.09077
7659.996,10.09238
7661.924,10.08863
7663.853,10.0818
7665.781,10.08955
7667.71,10.08613
7669.638,10.07598
7671.566,10.06635
7673.495,10.05657
7675.424,10.05437
7677.353,10.05259
7679.281,10.04899
7681.209,10.04798
7683.138,10.04005
7685.066,10.03313
7686.995,10.03198
7688.923,10.02649
7690.852,10.02654
7692.78,10.0264
7694.709,10.01934
7696.637,10.00937
7698.565,10.00632
7700.494,10.00314
7702.423,9.998768
7704.352,9.991963
7706.28,9.983415
7708.208,9.975632
7710.137,9.972928
7712.065,9.974081
7713.994,9.95894
7715.922,9.954683
7717.851,9.950136
7719.779,9.94425
7721.708,9.93822
7723.636,9.934451
7725.564,9.931839
7727.493,9.925273
7729.422,9.913038
7731.35,9.905713
7733.279,9.903197
7735.207,9.899608
7737.136,9.892871
7739.064,9.884253
7740.993,9.880718
7742.921,9.882496
7744.85,9.877429
7746.778,9.869376
7748.707,9.859455
7750.635,9.852241
7752.563,9.839097
7754.492,9.833613
7756.421,9.833786
7758.349,9.824986
7760.277,9.815007
7762.206,9.815121
7764.135,9.820953
7766.063,9.809804
7767.992,9.799085
7769.92,9.7879
7771.849,9.776506
7773.777,9.77063
7775.706,9.754864
7777.634,9.746339
7779.563,9.751205
7781.491,9.747338
7783.42,9.745911
7785.348,9.73453
7787.276,9.722259
7789.205,9.72252
7791.134,9.719486
7793.063,9.713186
7794.991,9.702661
7796.919,9.689489
7798.848,9.675927
7800.776,9.672172
7802.705,9.667323
7804.633,9.653955
7806.562,9.636915
7808.49,9.635675
7810.419,9.631905
7812.347,9.619333
7814.275,9.608007
7816.204,9.595019
7818.133,9.585832
7820.061,9.583008
7821.989,9.576933
7823.918,9.561005
7825.847,9.544173
7827.775,9.536004
7829.704,9.528945
7831.632,9.510222
7833.561,9.493067
7835.489,9.486094
7837.417,9.474926
7839.346,9.461594
7841.274,9.450599
7843.203,9.436042
7845.132,9.420931
7847.06,9.404531
7848.988,9.398146
7850.917,9.388975
7852.846,9.367017
7854.774,9.346026
7856.703,9.333934
7858.631,9.322414
7860.56,9.309583
7862.488,9.300509
7864.417,9.287721
7866.345,9.272165
7868.273,9.250594
7870.202,9.242794
7872.131,9.235334
7874.059,9.22976
7875.987,9.208156
7877.916,9.185271
7879.845,9.175084
7881.773,9.16161
7883.702,9.14607
7885.63,9.131508
7887.559,9.118573
7889.487,9.101823
7891.416,9.079754
7893.344,9.055991
7895.272,9.041362
7897.201,9.023941
7899.13,8.99466
7901.058,8.988987
7902.986,8.968833
7904.915,8.957808
7906.844,8.944623
7908.772,8.922772
7910.7,8.903456
7912.629,8.882431
7914.558,8.865951
7916.486,8.84638
7918.415,8.814708
7920.343,8.794271
7922.271,8.779392
7924.2,8.756305
7926.128,8.733637
7928.057,8.715168
7929.985,8.691607
7931.914,8.666393
7933.843,8.63681
7935.771,8.614129
7937.699,8.590765
7939.628,8.570761
7941.557,8.552288
7943.485,8.525558
7945.414,8.502547
7947.342,8.482632
7949.271,8.451119
7951.199,8.430011
7953.127,8.418278
7955.056,8.404587
7956.984,8.384914
7958.913,8.356964
7960.842,8.32845
7962.77,8.308602
7964.698,8.288744
7966.627,8.266665
7968.556,8.247206
7970.484,8.221826
7972.413,8.191292
7974.341,8.17243
7976.27,8.16068
7978.198,8.142212
7980.126,8.113743
7982.055,8.093727
7983.983,8.071066
7985.912,8.049512
7987.841,8.016268
7989.769,7.989977
7991.697,7.968956
7993.626,7.942933
7995.555,7.917567
7997.483,7.898667
7999.411,7.879131
8001.34,7.853717
8003.269,7.817295
8005.197,7.784515
8007.125,7.764202
8009.054,7.739076
8010.982,7.713576
8012.911,7.681975
8014.839,7.643889
8016.768,7.622238
8018.696,7.605342
8020.625,7.570768
8022.554,7.533296
8024.482,7.508028
8026.41,7.487423
8028.339,7.447851
8030.268,7.41445
8032.196,7.393114
8034.125,7.362579
8036.053,7.32444
8037.981,7.290917
8039.91,7.268678
8041.838,7.242948
8043.767,7.213924
8045.695,7.183396
8047.624,7.146458
8049.553,7.115993
8051.481,7.077288
8053.409,7.041653
8055.338,7.014207
8057.267,6.991362
8059.195,6.954788
8061.124,6.919164
8063.052,6.88805
8064.98,6.843981
8066.909,6.805833
8068.837,6.781582
8070.766,6.749397
8072.694,6.71291
8074.623,6.680091
8076.552,6.632205
8078.48,6.595427
8080.408,6.572241
8082.337,6.533425
8084.266,6.492272
8086.194,6.460399
8088.122,6.424745
8090.051,6.385913
8091.979,6.338598
8093.908,6.300496
8095.836,6.272114
8097.765,6.23757
8099.693,6.188589
8101.622,6.15288
8103.551,6.11874
8105.479,6.071689
8107.407,6.02167
8109.336,5.984662
8111.265,5.943451
8113.192,5.906527
8115.121,5.869059
8117.05,5.821728
8118.979,5.780365
8120.907,5.740392
8122.835,5.703511
8124.764,5.666735
8126.692,5.614291
8128.621,5.56895
8130.55,5.535005
8132.478,5.504624
8134.406,5.456612
8136.335,5.411012
8138.264,5.381631
8140.191,5.350495
8142.12,5.30481
8144.049,5.260765
8145.978,5.221104
8147.906,5.176065
8149.834,5.13255
8151.763,5.0961
8153.691,5.058142
8155.62,5.017972
8157.548,4.97703
8159.477,4.933165
8161.405,4.900901
8163.334,4.864419
8165.263,4.827893
8167.19,4.792875
8169.119,4.75948
8171.048,4.719919
8172.977,4.691179
8174.905,4.660889
8176.833,4.62867
8178.762,4.592353
8180.69,4.5642
8182.619,4.537379
8184.547,4.502348
8186.476,4.465621
8188.404,4.441504
8190.333,4.419148
8192.262,4.384476
8194.189,4.354164
8196.118,4.335411
8198.047,4.318089
8199.976,4.303504
8201.903,4.278115
8203.832,4.256393
8205.761,4.230245
8207.689,4.207828
8209.618,4.194491
8211.546,4.179639
8213.475,4.152422
8215.403,4.132305
8217.332,4.124772
8219.261,4.109289
8221.188,4.093676
8223.117,4.078404
8225.046,4.06114
8226.975,4.054861
8228.902,4.047101
8230.831,4.03578
8232.76,4.025492
8234.688,4.017047
8236.617,4.009578
8238.545,4.011092
8240.474,4.008663
8242.402,4.009101
8244.331,4.01332
8246.259,4.016244
8248.188,4.017631
8250.116,4.026267
8252.045,4.026017
8253.974,4.018638
8255.901,4.029219
8257.83,4.040179
8259.759,4.044987
8261.688,4.053109
8263.616,4.066833
8265.544,4.08123
8267.473,4.098885
8269.401,4.11088
8271.33,4.128856
8273.258,4.139161
8275.187,4.153126
8277.115,4.166836
8279.044,4.169068
8280.973,4.174929
8282.9,4.191323
8284.829,4.20411
8286.758,4.207973
8288.687,4.21318
8290.614,4.220356
8292.543,4.222208
8294.472,4.212238
8296.4,4.220119
8298.329,4.222466
8300.257,4.213486
8302.186,4.209965
8304.114,4.202631
8306.043,4.1966
8307.972,4.194942
8309.899,4.183026
8311.828,4.163305
8313.757,4.141092
8315.686,4.145057
8317.613,4.139528
8319.542,4.117513
8321.471,4.112363
8323.399,4.107833
8325.328,4.097929
8327.256,4.078755
8329.185,4.057014
8331.113,4.048172
8333.042,4.042368
8334.97,4.04699
8336.898,4.046906
8338.827,4.042684
8340.756,4.038129
8342.685,4.031414
8344.612,4.034313
8346.541,4.046213
8348.47,4.04463
8350.398,4.038638
8352.327,4.032361
8354.255,4.016756
8356.184,4.006319
8358.112,4.003928
8360.041,3.99455
8361.969,3.980376
8363.897,3.962821
8365.826,3.955164
8367.755,3.937188
8369.684,3.910924
8371.611,3.892332
8373.54,3.886759
8375.469,3.876485
8377.397,3.865103
8379.325,3.850336
8381.254,3.841953
8383.183,3.833969
8385.111,3.814572
8387.04,3.805268
8388.968,3.813487
8390.896,3.820265
8392.825,3.823609
8394.754,3.830682
8396.683,3.834215
8398.61,3.84939
8400.539,3.865003
8402.468,3.877041
8404.396,3.895144
8406.324,3.919073
8408.253,3.945066
8410.182,3.966705
8412.11,3.991231
8414.039,4.019321
8415.967,4.049432
8417.896,4.070226
8419.824,4.090026
8421.753,4.110388
8423.681,4.143888
8425.609,4.180957
8427.538,4.212017
8429.467,4.244925
8431.396,4.280754
8433.323,4.31543
8435.252,4.353547
8437.181,4.396624
8439.109,4.43299
8441.037,4.475891
8442.966,4.51672
8444.895,4.562731
8446.823,4.601303
8448.752,4.64339
8450.68,4.70338
8452.608,4.752367
8454.537,4.795482
8456.466,4.84264
8458.395,4.900189
8460.322,4.94311
8462.251,4.990364
8464.18,5.032858
8466.108,5.068683
8468.036,5.124944
8469.965,5.176402
8471.894,5.210508
8473.822,5.246222
8475.751,5.292714
8477.679,5.323667
8479.607,5.344779
8481.536,5.373338
8483.465,5.415039
8485.393,5.438626
8487.321,5.451471
8489.25,5.466278
8491.179,5.487191
8493.107,5.498851
8495.035,5.512586
8496.964,5.520139
8498.893,5.530341
8500.821,5.549325
8502.75,5.56302
8504.678,5.574575
8506.606,5.597441
8508.535,5.615803
8510.464,5.62444
8512.392,5.634222
8514.32,5.652725
8516.249,5.678761
8518.178,5.706919
8520.106,5.730341
8522.034,5.75693
8523.963,5.788584
8525.892,5.822453
8527.82,5.837153
8529.748,5.851372
8531.677,5.875742
8533.605,5.916466
8535.534,5.955728
8537.463,5.991954
8539.391,6.011065
8541.319,6.044713
8543.248,6.067597
8545.177,6.089447
8547.105,6.125146
8549.033,6.16398
8550.962,6.198988
8552.891,6.226401
8554.819,6.267179
8556.747,6.303085
8558.676,6.349948
8560.604,6.385034
8562.533,6.413398
8564.462,6.447384
8566.39,6.487859
8568.318,6.529346
8570.247,6.56534
8572.176,6.593079
8574.104,6.630193
8576.032,6.669693
8577.961,6.716987
8579.89,6.754709
8581.818,6.790446
8583.746,6.824162
8585.675,6.861325
8587.604,6.896256
8589.532,6.927679
8591.461,6.957255
8593.389,6.987862
8595.317,7.019024
8597.246,7.062989
8599.175,7.108018
8601.103,7.144004
8603.031,7.18447
8604.96,7.230247
8606.889,7.273523
8608.817,7.311533
8610.745,7.350842
8612.674,7.379341
8614.603,7.410118
8616.531,7.437619
8618.459,7.465414
8620.388,7.47859
8622.316,7.471189
8624.245,7.470745
8626.174,7.478236
8628.102,7.467198
8630.03,7.437057
8631.959,7.410377
8633.888,7.387803
8635.816,7.368419
8637.744,7.344619
8639.673,7.309754
8641.602,7.28983
8643.53,7.276912
8645.458,7.269797
8647.387,7.266175
8649.315,7.257025
8651.244,7.246632
8653.173,7.252491
8655.101,7.252072
8657.029,7.264061
8658.958,7.283607
8660.887,7.295614
8662.814,7.308747
8664.743,7.318793
8666.672,7.311763
8668.601,7.324162
8670.529,7.337084
8672.457,7.341273
8674.386,7.359698
8676.314,7.369884
8678.243,7.384486
8680.172,7.396931
8682.1,7.408606
8684.028,7.424502
8685.957,7.444943
8687.886,7.493812
8689.813,7.542306
8691.742,7.583483
8693.671,7.625223
8695.6,7.678789
8697.528,7.745416
8699.456,7.802125
8701.385,7.859932
8703.313,7.938674
8705.242,8.010473
8707.17,8.076465
8709.099,8.152758
8711.027,8.232526
8712.956,8.30084
8714.885,8.369011
8716.813,8.448432
8718.741,8.53327
8720.67,8.603213
8722.599,8.662345
8724.527,8.719831
8726.455,8.786133
8728.384,8.837975
8730.313,8.896638
8732.241,8.954682
8734.169,9.008435
8736.098,9.058998
8738.026,9.107477
8739.955,9.15709
8741.884,9.204006
8743.812,9.25458
8745.74,9.317621
8747.669,9.365313
8749.598,9.400206
8751.525,9.44754
8753.454,9.507408
8755.383,9.551362
8757.312,9.584186
8759.24,9.632992
8761.168,9.689884
8763.097,9.734896
8765.025,9.785046
8766.954,9.828322
8768.882,9.867813
8770.811,9.932697
8772.739,9.985191
8774.668,10.01794
8776.597,10.05897
8778.524,10.1041
8780.453,10.15762
8782.382,10.19767
8784.311,10.24003
8786.239,10.28535
8788.167,10.32899
8790.096,10.36765
8792.024,10.41258
8793.953,10.43886
8795.881,10.4674
8797.81,10.49697
8799.738,10.53916
8801.667,10.58015
8803.596,10.60521
8805.523,10.62891
8807.452,10.6677
8809.381,10.69333
8811.31,10.72038
8813.237,10.73458
8815.166,10.76177
8817.095,10.77796
8819.023,10.79411
8820.952,10.81359
8822.88,10.83195
8824.809,10.84457
8826.737,10.84708
8828.666,10.85934
8830.595,10.86843
8832.522,10.88711
8834.451,10.90657
8836.38,10.91404
8838.309,10.91789
8840.236,10.93683
8842.165,10.96385
8844.094,10.98359
8846.022,10.99849
8847.951,11.01004
8849.879,11.02214
8851.808,11.04293
8853.736,11.07062
8855.665,11.09455
8857.593,11.10725
8859.521,11.10954
8861.45,11.1185
8863.379,11.1426
8865.308,11.17124
8867.235,11.18603
8869.164,11.19482
8871.093,11.20248
8873.021,11.19953
8874.95,11.21252
8876.878,11.22566
8878.807,11.23252
8880.735,11.24198
8882.664,11.25401
8884.592,11.25845
8886.521,11.25717
8888.449,11.26977
8890.378,11.27089
8892.307,11.27943
8894.234,11.28739
8896.163,11.29217
8898.092,11.30353
8900.021,11.30024
8901.948,11.29165
8903.877,11.28963
8905.806,11.31529
8907.734,11.31953
8909.663,11.31198
8911.591,11.3116
8913.52,11.33433
8915.448,11.33985
8917.377,11.34132
8919.306,11.35588
8921.233,11.37159
8923.162,11.37237
8925.091,11.35886
8927.02,11.36522
8928.947,11.39062
8930.876,11.3925
8932.805,11.39122
8934.733,11.40025
8936.662,11.40029
8938.59,11.40177
8940.519,11.41114
8942.447,11.42427
8944.376,11.42329
8946.304,11.42262
8948.232,11.4249
8950.161,11.42937
8952.09,11.43074
8954.019,11.44888
8955.946,11.45493
8957.875,11.44268
8959.804,11.44194
8961.732,11.45829
8963.661,11.45552
8965.589,11.46266
8967.518,11.46807
8969.446,11.47422
8971.375,11.48472
8973.303,11.48528
8975.231,11.48701
8977.16,11.48938
8979.089,11.49667
8981.018,11.50802
8982.945,11.4989
8984.874,11.50026
8986.803,11.50278
8988.731,11.5144
8990.659,11.51902
8992.588,11.51844
8994.517,11.5205
8996.445,11.5268
8998.374,11.52878
9000.302,11.53153
9002.23,11.53643
9004.159,11.53637
9006.088,11.52338
9008.017,11.5202
9009.944,11.53142
9011.873,11.53905
9013.802,11.55871
9015.73,11.5661
9017.658,11.55113
9019.587,11.55101
9021.516,11.54762
9023.444,11.54681
9025.373,11.55644
9027.301,11.56803
9029.229,11.57211
9031.158,11.55953
9033.087,11.55567
9035.015,11.55687
9036.943,11.56722
9038.872,11.564
9040.801,11.55376
9042.729,11.5666
9044.657,11.57319
9046.586,11.57792
9048.515,11.57114
9050.443,11.56928
9052.372,11.56412
9054.3,11.5744
9056.229,11.58156
9058.157,11.57657
9060.086,11.58982
9062.014,11.60083
9063.942,11.60326
9065.871,11.60974
9067.8,11.61031
9069.729,11.60295
9071.656,11.58283
9073.585,11.58949
9075.514,11.60756
9077.442,11.60734
9079.37,11.60797
9081.299,11.59963
9083.228,11.60138
9085.156,11.60378
9087.085,11.60454
9089.013,11.60082
9090.941,11.59503
9092.87,11.60115
9094.799,11.61647
9096.727,11.62088
9098.655,11.61619
9100.584,11.61285
9102.513,11.60237
9104.441,11.60236
9106.369,11.61148
9108.298,11.61039
9110.227,11.60604
9112.155,11.61124
9114.084,11.60698
9116.012,11.60361
9117.94,11.60339
9119.869,11.6148
9121.798,11.61377
9123.726,11.59847
9125.654,11.60095
9127.583,11.60275
9129.512,11.59915
9131.44,11.59065
9133.368,11.59863
9135.297,11.59635
9137.226,11.59613
9139.154,11.59935
9141.082,11.59795
9143.011,11.59869
9144.939,11.58121
9146.868,11.5828
9148.797,11.58148
9150.725,11.58335
9152.653,11.5819
9154.582,11.57445
9156.511,11.57038
9158.439,11.58415
9160.367,11.59839
9162.296,11.59082
9164.225,11.5742
9166.153,11.56853
9168.081,11.5475
9170.01,11.55762
9171.938,11.55701
9173.867,11.55745
9175.796,11.57196
9177.724,11.57408
9179.652,11.55985
9181.581,11.55406
9183.51,11.55014
9185.438,11.53589
9187.366,11.52798
9189.295,11.53276
9191.224,11.52746
9193.152,11.52616
9195.08,11.50461
9197.009,11.49386
9198.938,11.50784
9200.866,11.51313
9202.795,11.50914
9204.723,11.50118
9206.651,11.48228
9208.58,11.49017
9210.509,11.49945
9212.437,11.494
9214.365,11.48552
9216.294,11.47387
9218.223,11.46356
9220.151,11.46273
9222.079,11.46245
9224.008,11.45302
9225.937,11.46126
9227.865,11.46021
9229.793,11.44333
9231.722,11.44296
9233.65,11.45079
9235.579,11.44771
9237.508,11.44363
9239.436,11.44704
9241.364,11.4581
9243.293,11.45856
9245.222,11.43497
9247.15,11.43714
9249.078,11.43464
9251.007,11.42405
9252.936,11.41648
9254.864,11.41643
9256.792,11.40734
9258.721,11.42028
9260.649,11.41263
9262.578,11.3858
9264.507,11.37072
9266.435,11.39976
9268.363,11.41256
9270.292,11.40241
9272.221,11.3771
9274.148,11.36729
9276.077,11.37074
9278.006,11.36209
9279.935,11.3599
9281.863,11.3672
9283.791,11.36971
9285.72,11.3616
9287.648,11.34377
9289.577,11.34474
9291.506,11.32701
9293.434,11.32349
9295.362,11.33115
9297.291,11.3364
9299.22,11.3305
9301.147,11.32989
9303.076,11.32551
9305.005,11.32599
9306.934,11.31358
9308.862,11.30429
9310.79,11.29785
9312.719,11.30013
9314.647,11.30018
9316.576,11.29564
9318.504,11.2992
9320.433,11.27981
9322.361,11.2731
9324.29,11.28129
9326.219,11.27913
9328.146,11.26336
9330.075,11.2544
9332.004,11.26382
9333.933,11.25686
9335.861,11.23514
9337.789,11.22759
9339.718,11.23168
9341.646,11.23681
9343.575,11.22989
9345.503,11.23725
9347.432,11.23603
9349.36,11.22838
9351.289,11.22026
9353.218,11.22467
9355.146,11.221
9357.074,11.20979
9359.003,11.20201
9360.932,11.20091
9362.859,11.19989
9364.788,11.19861
9366.717,11.2023
9368.646,11.19616
9370.574,11.17799
9372.502,11.18222
9374.431,11.199
9376.359,11.19838
9378.288,11.18434
9380.217,11.1754
9382.145,11.18893
9384.073,11.19401
9386.002,11.18142
9387.931,11.16795
9389.858,11.17906
9391.787,11.18221
9393.716,11.16915
9395.645,11.1682
9397.573,11.16914
9399.501,11.18448
9401.43,11.17781
9403.358,11.16486
9405.287,11.16108
9407.215,11.14273
9409.144,11.1464
9411.072,11.16245
9413.001,11.16172
9414.93,11.17306
9416.857,11.16115
9418.786,11.15692
9420.715,11.16183
9422.644,11.14993
9424.571,11.15416
9426.5,11.16559
9428.429,11.16103
9430.357,11.1548
9432.286,11.14591
9434.214,11.14355
9436.143,11.14955
9438.071,11.14556
9440.0,11.13517
9441.929,11.13373
9443.856,11.14467
9445.785,11.14667
9447.714,11.13768
9449.643,11.15181
9451.57,11.13524
9453.499,11.12
9455.428,11.12127
9457.356,11.13268
9459.285,11.1382
9461.213,11.10849
9463.142,11.09196
9465.07,11.09476
9466.999,11.08962
9468.927,11.09267
9470.855,11.09914
9472.784,11.09861
9474.713,11.0894
9476.642,11.07763
9478.569,11.08202
9480.498,11.0865
9482.427,11.08331
9484.355,11.0966
9486.284,11.07772
9488.212,11.06219
9490.141,11.04732
9492.069,11.05068
9493.998,11.05857
9495.926,11.04052
9497.854,11.04418
9499.783,11.06751
9501.712,11.06414
9503.641,11.02679
9505.568,11.01072
9507.497,11.05123
9509.426,11.0557
9511.354,11.03589
9513.282,11.0454
9515.211,11.03923
9517.14,11.03691
9519.068,11.03639
9520.997,11.03024
9522.925,11.01629
9524.854,11.01679
9526.782,11.02993
9528.711,11.01988
9530.64,10.99957
9532.567,10.99613
9534.496,11.01352
9536.425,11.03468
9538.354,11.02608
9540.281,11.01494
9542.21,11.0141
9544.139,11.01461
9546.067,10.99891
9547.996,11.0092
9549.924,11.03351
9551.853,11.009
9553.781,10.99816
9555.71,11.02519
9557.638,11.02405
9559.566,11.01478
9561.495,11.01911
9563.424,11.01731
9565.353,11.02951
9567.28,11.04051
9569.209,11.0263
9571.138,11.02053
9573.066,11.02657
9574.995,11.03216
9576.923,11.03116
9578.852,11.03492
9580.78,11.0382
9582.709,11.03261
9584.637,11.03434
9586.565,11.06213
9588.494,11.05025
9590.423,11.0512
9592.352,11.03988
9594.279,11.02805
9596.208,11.03678
9598.137,11.03932
9600.065,11.03286
9601.993,11.02993
9603.922,11.03977
9605.851,11.04971
9607.779,11.04012
9609.708,11.03753
9611.636,11.03851
9613.564,11.03791
9615.493,11.03088
9617.422,11.03434
9619.351,11.03511
9621.278,11.04551
9623.207,11.05737
9625.136,11.05195
9627.064,11.04134
9628.992,11.04472
9630.921,11.04169
9632.85,11.03736
9634.778,11.0242
9636.707,11.01481
9638.635,11.02247
9640.563,11.02092
9642.492,11.01488
9644.421,11.01305
9646.349,11.01149
9648.277,11.01133
9650.206,11.03076
9652.135,11.02225
9654.063,11.00052
9655.991,11.01717
9657.92,11.02538
9659.849,11.01841
9661.777,11.0053
9663.706,10.98877
9665.634,10.99647
9667.563,11.01048
9669.491,11.01034
9671.42,11.0092
9673.348,10.98657
9675.276,10.98881
9677.205,10.99748
9679.134,10.9893
9681.063,10.9889
9682.99,10.99068
9684.919,10.98212
9686.848,10.95448
9688.776,10.95616
9690.704,10.98055
9692.633,10.98651
9694.562,11.00231
9696.49,11.01743
9698.419,11.00805
9700.347,10.99256
9702.275,10.98534
9704.204,10.9884
9706.133,10.97488
9708.062,10.96773
9709.989,10.97506
9711.918,10.9791
9713.847,10.97414
9715.775,10.97846
9717.703,10.96584
9719.632,10.94353
9721.561,10.94079
9723.489,10.94294
9725.418,10.94489
9727.346,10.95455
9729.274,10.95225
9731.203,10.92617
9733.132,10.91462
9735.06,10.92412
9736.988,10.92579
9738.917,10.93618
9740.846,10.92772
9742.774,10.92385
9744.702,10.92123
9746.631,10.9258
9748.56,10.91788
9750.488,10.9059
9752.416,10.90093
9754.345,10.88939
9756.273,10.8921
9758.202,10.90942
9760.131,10.9076
9762.059,10.88976
9763.987,10.88132
9765.916,10.88532
9767.845,10.88087
9769.773,10.88284
9771.701,10.90084
9773.63,10.8835
9775.559,10.87629
9777.487,10.86959
9779.415,10.8537
9781.344,10.84821
9783.272,10.85134
9785.201,10.85957
9787.13,10.85708
9789.058,10.84782
9790.986,10.85143
9792.915,10.84595
9794.844,10.82635
9796.771,10.82757
9798.7,10.83474
9800.629,10.83642
9802.558,10.83958
9804.486,10.84209
9806.414,10.84896
9808.343,10.85969
9810.271,10.85176
9812.2,10.84289
9814.129,10.83117
9816.057,10.85321
9817.985,10.87196
9819.914,10.86444
9821.843,10.87157
9823.771,10.87453
9825.699,10.87386
9827.628,10.87977
9829.557,10.86742
9831.485,10.8832
9833.413,10.90051
9835.342,10.88321
9837.271,10.88583
9839.199,10.9194
9841.127,10.92664
9843.056,10.9419
9844.984,10.9537
9846.913,10.94407
9848.842,10.96603
9850.77,10.9675
9852.698,10.97117
9854.627,10.9957
9856.556,11.00137
9858.484,11.00298
9860.412,11.03039
9862.341,11.02764
9864.27,11.00233
9866.198,11.01391
9868.126,11.04718
9870.055,11.05485
9871.983,11.08028
9873.912,11.08927
9875.841,11.09776
9877.769,11.1147
9879.697,11.12896
9881.626,11.14131
9883.555,11.14738
9885.482,11.14195
9887.411,11.1642
9889.34,11.19297
9891.269,11.19647
9893.197,11.21305
9895.125,11.19521
9897.054,11.20736
9898.982,11.24565
9900.911,11.24171
9902.84,11.26252
9904.768,11.2827
9906.696,11.28469
9908.625,11.2954
9910.554,11.28741
9912.481,11.28572
9914.41,11.28392
9916.339,11.30391
9918.268,11.30987
9920.196,11.32474
9922.124,11.3359
9924.053,11.34163
9925.981,11.33893
9927.91,11.3464
9929.838,11.33109
9931.767,11.32855
9933.695,11.36058
9935.624,11.39468
9937.553,11.41957
9939.48,11.40257
9941.409,11.39943
9943.338,11.41224
9945.267,11.40233
9947.195,11.40539
9949.123,11.41281
9951.052,11.42744
9952.98,11.44579
9954.909,11.44424
9956.837,11.46764
9958.766,11.48638
9960.694,11.47238
9962.623,11.47518
9964.552,11.48205
9966.479,11.47722
9968.408,11.46198
9970.337,11.47917
9972.266,11.49906
9974.193,11.50489
9976.122,11.48656
9978.051,11.50358
9979.979,11.53642
9981.908,11.52295
9983.836,11.50337
9985.765,11.51483
9987.693,11.51569
9989.622,11.51841
9991.551,11.5387
9993.479,11.53747
9995.407,11.52762
9997.336,11.535
9999.265,11.53414
10001.19,11.54313
10003.12,11.54422
10005.05,11.55925
10006.98,11.55793
10008.91,11.54046
10010.83,11.57482
10012.76,11.58998
10014.69,11.57999
10016.62,11.57741
10018.55,11.58516
10020.48,11.60147
10022.41,11.61248
10024.33,11.59377
10026.26,11.59016
10028.19,11.60952
10030.12,11.63092
10032.05,11.6417
10033.98,11.65481
10035.91,11.66975
10037.83,11.68903
10039.76,11.69455
10041.69,11.71581
10043.62,11.72631
10045.55,11.70874
10047.48,11.708
10049.41,11.74762
10051.33,11.76779
10053.26,11.74579
10055.19,11.74664
10057.12,11.76867
10059.05,11.77053
10060.98,11.77554
10062.9,11.79845
10064.83,11.80762
10066.76,11.81565
10068.69,11.81065
10070.62,11.82928
10072.55,11.8213
10074.48,11.80227
10076.4,11.83096
10078.33,11.85697
10080.26,11.85464
10082.19,11.85496
10084.12,11.87483
10086.05,11.86198
10087.98,11.8747
10089.9,11.89013
10091.83,11.90907
10093.76,11.89686
10095.69,11.88685
10097.62,11.87185
10099.55,11.88594
10101.47,11.89836
10103.4,11.89367
10105.33,11.89668
10107.26,11.88224
10109.19,11.87997
10111.12,11.90574
10113.05,11.90832
10114.97,11.90778
10116.9,11.91881
10118.83,11.90712
10120.76,11.94212
10122.69,11.96635
10124.62,11.9745
10126.54,11.97997
10128.47,11.98876
10130.4,12.00442
10132.33,12.00037
10134.26,11.99493
10136.19,11.986
10138.12,11.97594
10140.04,11.98605
10141.97,11.99261
10143.9,12.00997
10145.83,12.02866
10147.76,12.01669
10149.69,11.99572
10151.62,12.02028
10153.54,12.04234
10155.47,12.03692
10157.4,12.02912
10159.33,12.0574
10161.26,12.0574
10163.19,12.05706
10165.12,12.04445
10167.04,12.04535
10168.97,12.06652
10170.9,12.07177
10172.83,12.06115
10174.76,12.04089
10176.69,12.04099
10178.61,12.05265
10180.54,12.06915
10182.47,12.05414
10184.4,12.05949
10186.33,12.08968
10188.26,12.07883
10190.19,12.04383
10192.11,12.06129
10194.04,12.0768
10195.97,12.06641
10197.9,12.05056
10199.83,12.03522
10201.76,12.05232
10203.69,12.07683
10205.61,12.09124
10207.54,12.08427
10209.47,12.07458
10211.4,12.10124
10213.33,12.13454
10215.26,12.11906
10217.18,12.11179
10219.11,12.14595
10221.04,12.15235
10222.97,12.14776
10224.9,12.1413
10226.83,12.13591
10228.76,12.11535
10230.68,12.12361
10232.61,12.12874
10234.54,12.12685
10236.47,12.12086
10238.4,12.12543
10240.33,12.11069
10242.25,12.11419
10244.18,12.13658
10246.11,12.1255
10248.04,12.13039
10249.97,12.1273
10251.9,12.1469
10253.83,12.14749
10255.75,12.15596
10257.68,12.14967
10259.61,12.15639
10261.54,12.16159
10263.47,12.17905
10265.4,12.1588
10267.33,12.1152
10269.25,12.12522
10271.18,12.15547
10273.11,12.14272
10275.04,12.13145
10276.97,12.12444
10278.9,12.14541
10280.83,12.11026
10282.75,12.09651
10284.68,12.11642
10286.61,12.12711
10288.54,12.13491
10290.47,12.13216
10292.4,12.12164
10294.32,12.12264
10296.25,12.13622
10298.18,12.1637
10300.11,12.16805
10302.04,12.15934
10303.97,12.17658
10305.9,12.1581
10307.82,12.1196
10309.75,12.12322
10311.68,12.12207
10313.61,12.14987
10315.54,12.12821
10317.47,12.0944
10319.4,12.10577
10321.32,12.14664
10323.25,12.17527
10325.18,12.17
10327.11,12.15088
10329.04,12.12994
10330.97,12.14474
10332.89,12.13549
10334.82,12.10253
10336.75,12.10052
10338.68,12.11892
10340.61,12.11524
10342.54,12.11536
10344.47,12.13179
10346.39,12.12507
10348.32,12.11931
10350.25,12.09403
10352.18,12.10937
10354.11,12.08953
10356.04,12.08162
10357.96,12.06326
10359.89,12.06342
10361.82,12.10423
10363.75,12.11929
10365.68,12.09904
10367.61,12.09082
10369.54,12.06051
10371.46,12.07698
10373.39,12.08899
10375.32,12.07481
10377.25,12.01505
10379.18,12.01236
10381.11,12.06873
10383.04,12.10283
10384.96,12.0768
10386.89,12.09839
10388.82,12.11355
10390.75,12.09531
10392.68,12.10743
10394.61,12.10025
10396.54,12.0835
10398.46,12.02561
10400.39,12.02936
10402.32,12.055
10404.25,12.09284
10406.18,12.07667
10408.11,12.02483
10410.03,12.02157
10411.96,12.05072
10413.89,12.07836
10415.82,12.07583
10417.75,12.05737
10419.68,12.02511
10421.61,12.03421
10423.53,12.0452
10425.46,12.02052
10427.39,11.99001
10429.32,11.98618
10431.25,11.96768
10433.18,11.95346
10435.1,11.97616
10437.03,11.99108
10438.96,11.97658
10440.89,11.97531
10442.82,11.97004
10444.75,11.98898
10446.68,11.99936
10448.6,11.99887
10450.53,11.98033
10452.46,11.97715
10454.39,11.98301
10456.32,11.98948
10458.25,12.02379
10460.18,11.98816
10462.1,11.93368
10464.03,11.93518
10465.96,11.93161
10467.89,11.9398
10469.82,11.93765
10471.75,11.94538
10473.67,11.92623
10475.6,11.90983
10477.53,11.91334
10479.46,11.91486
10481.39,11.87344
10483.32,11.85047
10485.25,11.87121
10487.17,11.85894
10489.1,11.84977
10491.03,11.86698
10492.96,11.87613
10494.89,11.8688
10496.82,11.81744
10498.75,11.79365
10500.67,11.78944
10502.6,11.783
10504.53,11.78703
10506.46,11.78286
10508.39,11.75673
10510.32,11.77499
10512.25,11.7775
10514.17,11.73938
10516.1,11.72295
10518.03,11.7348
10519.96,11.7489
10521.89,11.74948
10523.82,11.68916
10525.74,11.67466
10527.67,11.65143
10529.6,11.67548
10531.53,11.65422
10533.46,11.66848
10535.39,11.67735
10537.32,11.61916
10539.24,11.60986
10541.17,11.6459
10543.1,11.65764
10545.03,11.62847
10546.96,11.61484
10548.89,11.58077
10550.81,11.51461
10552.74,11.51289
10554.67,11.55859
10556.6,11.5303
10558.53,11.49057
10560.46,11.5068
10562.39,11.54902
10564.31,11.51125
10566.24,11.42658
10568.17,11.4098
10570.1,11.43865
10572.03,11.4461
10573.96,11.41127
10575.89,11.35393
10577.81,11.35444
10579.74,11.36958
10581.67,11.34148
10583.6,11.28281
10585.53,11.29909
10587.46,11.30564
10589.38,11.27652
10591.31,11.22837
10593.24,11.20802
10595.17,11.24581
10597.1,11.24197
10599.03,11.20495
10600.96,11.18142
10602.88,11.14516
10604.81,11.15694
10606.74,11.13751
10608.67,11.11408
10610.6,11.08977
10612.53,11.09043
10614.46,11.05775
10616.38,11.03539
10618.31,11.05336
10620.24,11.03573
10622.17,11.03341
10624.1,11.02365
10626.03,10.98625
10627.96,10.97344
10629.88,10.95575
10631.81,10.93587
10633.74,10.9154
10635.67,10.90676
10637.6,10.8922
10639.53,10.86447
10641.45,10.86846
10643.38,10.83626
10645.31,10.85
10647.24,10.85273
10649.17,10.84303
10651.1,10.81676
10653.03,10.76375
10654.95,10.795
10656.88,10.84702
10658.81,10.82687
10660.74,10.76151
10662.67,10.74795
10664.6,10.73939
10666.52,10.73324
10668.45,10.72707
10670.38,10.69519
10672.31,10.70315
10674.24,10.71551
10676.17,10.67268
10678.1,10.68432
10680.02,10.67587
10681.95,10.66754
10683.88,10.67522
10685.81,10.63595
10687.74,10.6238
10689.67,10.63772
10691.59,10.6306
10693.52,10.65171
10695.45,10.64819
10697.38,10.63002
10699.31,10.62029
10701.24,10.6125
10703.17,10.62689
10705.09,10.64285
10707.02,10.60306
10708.95,10.5906
10710.88,10.60123
10712.81,10.58853
10714.74,10.57638
10716.67,10.58873
10718.59,10.60561
10720.52,10.61392
10722.45,10.63081
10724.38,10.6214
10726.31,10.5902
10728.24,10.60548
10730.17,10.5963
10732.09,10.57317
10734.02,10.59325
10735.95,10.57559
10737.88,10.5515
10739.81,10.59196
10741.74,10.65023
10743.67,10.64151
10745.59,10.57444
10747.52,10.58133
10749.45,10.62755
10751.38,10.60963
10753.31,10.60242
10755.24,10.61874
10757.16,10.60753
10759.09,10.57021
10761.02,10.60394
10762.95,10.62965
10764.88,10.67408
10766.81,10.66971
10768.74,10.6414
10770.66,10.61388
10772.59,10.61709
10774.52,10.59257
10776.45,10.56764
10778.38,10.59567
10780.31,10.61599
10782.23,10.59212
10784.16,10.60263
10786.09,10.61243
10788.02,10.61298
10789.95,10.65207
10791.88,10.61198
10793.81,10.58127
10795.73,10.58401
10797.66,10.57756
10799.59,10.60004
10801.52,10.6094
10803.45,10.60888
10805.38,10.57842
10807.3,10.56561
10809.23,10.56562
10811.16,10.58327
10813.09,10.56931
10815.02,10.53888
10816.95,10.51943
10818.88,10.52026
10820.8,10.49467
10822.73,10.50214
10824.66,10.49039
10826.59,10.50807
10828.52,10.52793
10830.45,10.54155
10832.38,10.53189
10834.3,10.54028
10836.23,10.59081
10838.16,10.59085
10840.09,10.52018
10842.02,10.50775
10843.95,10.47548
10845.88,10.47055
10847.8,10.48302
10849.73,10.48818
10851.66,10.46381
10853.59,10.48321
10855.52,10.48173
10857.45,10.43417
10859.38,10.38388
10861.3,10.41997
10863.23,10.41156
10865.16,10.40149
10867.09,10.42267
10869.02,10.47297
10870.95,10.4802
10872.87,10.44017
10874.8,10.40562
10876.73,10.42036
10878.66,10.43304
10880.59,10.44445
10882.52,10.40477
10884.45,10.42208
10886.37,10.47098
10888.3,10.42797
10890.23,10.37365
10892.16,10.4387
10894.09,10.49961
10896.02,10.45929
10897.94,10.42152
10899.87,10.48031
10901.8,10.4982
10903.73,10.45891
10905.66,10.40592
10907.59,10.39388
10909.52,10.42868
10911.44,10.4474
10913.37,10.46345
10915.3,10.46733
10917.23,10.42546
10919.16,10.41492
10921.09,10.3784
10923.01,10.33968
10924.94,10.35357
10926.87,10.38755
10928.8,10.36586
10930.73,10.31643
10932.66,10.30127
10934.59,10.38561
10936.51,10.39714
10938.44,10.3975
10940.37,10.41759
10942.3,10.36147
10944.23,10.31532
10946.16,10.33719
10948.09,10.32687
10950.01,10.28019
10951.94,10.28261
10953.87,10.34368
10955.8,10.3546
10957.73,10.3639
10959.66,10.37371
10961.58,10.32937
10963.51,10.31848
10965.44,10.35303
10967.37,10.35459
10969.3,10.32375
10971.23,10.29801
10973.16,10.3322
10975.08,10.36126
10977.01,10.37413
10978.94,10.38084
10980.87,10.40843
10982.8,10.41222
10984.73,10.40388
10986.66,10.46323
10988.58,10.52288
10990.51,10.50892
10992.44,10.49859
10994.37,10.54886
10996.3,10.55885
10998.23,10.54562
11000.16,10.57816
11002.08,10.61677
11004.01,10.57158
11005.94,10.54043
11007.87,10.58616
11009.8,10.64658
11011.73,10.61451
11013.65,10.57742
11015.58,10.68098
11017.51,10.7202
11019.44,10.71693
11021.37,10.79504
11023.3,10.88008
11025.23,10.85581
11027.15,10.80067
11029.08,10.7648
11031.01,10.80338
11032.94,10.8254
11034.87,10.80777
11036.8,10.9053
11038.72,10.97375
11040.65,10.95359
11042.58,10.97927
11044.51,11.05371
11046.44,11.05748
11048.37,11.04737
11050.3,11.03213
11052.22,11.09526
11054.15,11.12433
11056.08,11.09478
11058.01,11.05627
11059.94,11.08716
11061.87,11.14722
11063.79,11.14844
11065.72,11.12743
11067.65,11.14205
11069.58,11.19325
11071.51,11.2012
11073.44,11.22691
11075.37,11.26543
11077.29,11.25797
11079.22,11.27682
11081.15,11.31592
11083.08,11.37063
11085.01,11.36172
11086.94,11.33208
11088.87,11.37905
11090.79,11.40423
11092.72,11.38163
11094.65,11.37328
11096.58,11.44892
11098.51,11.44276
11100.44,11.41419
11102.37,11.44505
11104.29,11.47025
11106.22,11.48171
11108.15,11.49312
11110.08,11.52643
11112.01,11.48134
11113.94,11.51733
11115.87,11.52828
11117.79,11.58796
11119.72,11.6252
11121.65,11.68517
11123.58,11.67563
11125.51,11.61257
11127.44,11.57944
11129.36,11.64374
11131.29,11.72616
11133.22,11.73433
11135.15,11.77517
11137.08,11.76905
11139.01,11.7899
11140.94,11.76011
11142.86,11.7646
11144.79,11.84616
11146.72,11.90594
11148.65,11.83958
11150.58,11.78969
11152.51,11.84902
11154.43,11.81255
11156.36,11.7782
11158.29,11.8509
11160.22,11.88389
11162.15,11.92448
11164.08,11.88746
11166.01,11.86646
11167.93,11.89261
11169.86,11.93378
11171.79,11.97867
11173.72,12.00913
11175.65,11.93069
11177.58,11.95105
11179.5,11.98092
11181.43,11.94284
11183.36,11.91362
11185.29,11.96063
11187.22,12.0182
11189.15,11.99879
11191.08,12.00734
11193.0,12.01312
11194.93,12.0153
11196.86,12.0864
11198.79,12.07337
11200.72,12.07202
11202.65,12.05868
11204.58,12.03911
11206.5,12.06979
11208.43,12.11975
11210.36,12.15396
11212.29,12.19731
11214.22,12.09439
11216.15,12.06553
11218.08,12.12493
11220.0,12.13823
11221.93,12.17776
11223.86,12.19749
11225.79,12.16604
11227.72,12.11422
11229.65,12.19468
11231.58,12.27348
11233.5,12.22663
11235.43,12.14275
11237.36,12.15772
11239.29,12.19763
11241.22,12.22182
11243.15,12.16338
11245.07,12.1218
11247.0,12.14528
11248.93,12.09823
11250.86,12.09927
11252.79,12.21596
11254.72,12.27568
11256.65,12.19292
11258.57,12.20451
11260.5,12.22809
11262.43,12.21752
11264.36,12.1951
11266.29,12.17709
11268.22,12.22907
11270.14,12.25016
11272.07,12.26548
11274.0,12.25384
11275.93,12.22784
11277.86,12.18196
11279.79,12.15176
11281.72,12.14383
11283.64,12.20865
11285.57,12.2447
11287.5,12.22997
11289.43,12.19501
11291.36,12.14232
11293.29,12.16512
11295.21,12.27548
11297.14,12.28544
11299.07,12.23417
11301.0,12.16736
11302.93,12.16359
11304.86,12.23399
11306.79,12.29584
11308.71,12.30278
11310.64,12.29682
11312.57,12.30697
11314.5,12.2856
11316.43,12.31635
11318.36,12.33387
11320.29,12.3363
11322.21,12.34657
11324.14,12.30649
11326.07,12.31215
11328.0,12.38383
11329.93,12.3851
11331.86,12.38703
11333.79,12.40366
11335.71,12.35321
11337.64,12.32948
11339.57,12.35645
11341.5,12.36166
11343.43,12.36009
11345.36,12.39453
11347.28,12.39635
11349.21,12.34313
11351.14,12.36791
11353.07,12.38707
11355.0,12.36707
11356.93,12.30836
11358.86,12.30282
11360.78,12.29958
11362.71,12.39853
11364.64,12.50424
11366.57,12.50041
11368.5,12.49133
11370.43,12.45316
11372.36,12.42948
11374.28,12.45258
11376.21,12.40315
11378.14,12.42226
11380.07,12.41944
11382.0,12.38442
11383.93,12.37972
11385.85,12.40857
11387.78,12.35824
11389.71,12.42304
11391.64,12.46997
11393.57,12.45619
11395.5,12.43906
11397.43,12.45176
11399.35,12.38962
11401.28,12.43042
11403.21,12.41377
11405.14,12.47116
11407.07,12.52502
11409.0,12.52304
11410.92,12.48617
11412.85,12.50536
11414.78,12.49875
11416.71,12.43592
11418.64,12.47712
11420.57,12.51765
11422.5,12.55932
11424.42,12.55302
11426.35,12.56411
11428.28,12.5794
11430.21,12.61617
11432.14,12.66889
11434.07,12.60633
11436.0,12.59226
11437.92,12.51448
11439.85,12.52775
11441.78,12.59456
11443.71,12.57602
11445.64,12.55514
11447.57,12.5405
11449.5,12.58494
11451.42,12.68088
11453.35,12.6357
11455.28,12.52925
11457.21,12.57426
11459.14,12.62319
11461.07,12.61836
11462.99,12.58445
11464.92,12.62192
11466.85,12.72999
11468.78,12.68741
11470.71,12.67198
11472.64,12.65076
11474.57,12.638
11476.49,12.63562
11478.42,12.56478
11480.35,12.55234
11482.28,12.61516
11484.21,12.66604
11486.14,12.60238
11488.07,12.5827
11489.99,12.57544
11491.92,12.56551
11493.85,12.54907
11495.78,12.56588
11497.71,12.61206
11499.64,12.60846
11501.56,12.64128
11503.49,12.61982
11505.42,12.63049
11507.35,12.64795
11509.28,12.68355
11511.21,12.67885
11513.14,12.68564
11515.06,12.66779
11516.99,12.67453
11518.92,12.68846
11520.85,12.59145
11522.78,12.62523
11524.71,12.64824
11526.63,12.65007
11528.56,12.64845
11530.49,12.67771
11532.42,12.67772
11534.35,12.64815
11536.28,12.67164
11538.21,12.68015
11540.13,12.69515
11542.06,12.7317
11543.99,12.78989
11545.92,12.81756
11547.85,12.78834
11549.78,12.71356
11551.71,12.72825
11553.63,12.74331
11555.56,12.71247
11557.49,12.71935
11559.42,12.71812
11561.35,12.76928
11563.28,12.78045
11565.21,12.73792
11567.13,12.79028
11569.06,12.79546
11570.99,12.72227
11572.92,12.68141
11574.85,12.72938
11576.78,12.72802
11578.7,12.79126
11580.63,12.82819
11582.56,12.72521
11584.49,12.64293
11586.42,12.68106
11588.35,12.77914
11590.28,12.83756
11592.2,12.79603
11594.13,12.70493
11596.06,12.72077
11597.99,12.78549
11599.92,12.69337
11601.85,12.72518
11603.78,12.75145
11605.7,12.77374
11607.63,12.81294
11609.56,12.85384
11611.49,12.82176
11613.42,12.7481
11615.35,12.74926
11617.27,12.83481
11619.2,12.83104
11621.13,12.82785
11623.06,12.80326
11624.99,12.7957
11626.92,12.79955
11628.85,12.79013
11630.77,12.80665
11632.7,12.83492
11634.63,12.86664
11636.56,12.83887
11638.49,12.77872
11640.42,12.77755
11642.34,12.83059
11644.27,12.88122
11646.2,12.81676
11648.13,12.84993
11650.06,12.80263
11651.99,12.81341
11653.92,12.79826
11655.84,12.79563
11657.77,12.80957
11659.7,12.7457
11661.63,12.73689
11663.56,12.82232
11665.49,12.79915
11667.42,12.76739
11669.34,12.86633
11671.27,12.87796
11673.2,12.86829
11675.13,12.76656
11677.06,12.70807
11678.99,12.68745
11680.92,12.77737
11682.84,12.77665
11684.77,12.73107
11686.7,12.73362
11688.63,12.76841
11690.56,12.89633
11692.49,12.88793
11694.41,12.78317
11696.34,12.7541
11698.27,12.78546
11700.2,12.89443
11702.13,12.8711
11704.06,12.82683
11705.99,12.79188
11707.91,12.72447
11709.84,12.79217
11711.77,12.84313
11713.7,12.91981
11715.63,12.89207
11717.56,12.80986
11719.48,12.87794
11721.41,12.82814
11723.34,12.76922
11725.27,12.80451
11727.2,12.88727
11729.13,12.83818
11731.06,12.75533
11732.98,12.88087
11734.91,12.99259
11736.84,12.94396
11738.77,12.91907
11740.7,12.89472
11742.63,12.816
11744.56,12.91404
11746.48,12.88917
11748.41,12.86432
11750.34,12.8738
11752.27,12.93054
11754.2,12.98463
11756.13,12.87085
11758.05,12.87309
11759.98,12.87842
11761.91,12.79234
11763.84,12.84783
11765.77,12.82909
11767.7,12.83197
11769.63,12.95505
11771.55,12.95433
11773.48,12.87576
11775.41,12.88093
11777.34,12.99148
11779.27,13.05484
11781.2,12.97375
11783.13,12.84189
11785.05,12.9502
11786.98,12.93866
11788.91,13.00978
11790.84,12.99323
11792.77,12.90749
11794.7,12.93486
11796.63,12.83161
11798.55,12.83783
11800.48,12.9562
11802.41,12.87397
11804.34,12.79589
11806.27,12.84938
11808.2,12.9201
11810.12,12.93739
11812.05,13.00204
11813.98,12.99961
11815.91,13.03182
11817.84,13.05977
11819.77,13.0589
11821.7,12.9749
11823.62,12.93822
11825.55,12.96914
11827.48,12.96207
11829.41,12.99769
11831.34,12.92404
11833.27,12.873
11835.19,12.90727
11837.12,13.00738
11839.05,13.12773
11840.98,13.16124
11842.91,12.98805
11844.84,12.8279
11846.77,12.99434
11848.69,13.22068
11850.62,13.0842
11852.55,13.08554
11854.48,13.06554
11856.41,13.06039
11858.34,12.92791
11860.27,12.9787
11862.19,13.0417
11864.12,12.93311
11866.05,12.91672
11867.98,12.96926
11869.91,12.89552
11871.84,12.83782
11873.76,12.89825
11875.69,12.96581
11877.62,12.93305
11879.55,12.87606
11881.48,13.01039
11883.41,12.89658
11885.34,12.76711
11887.26,12.64664
11889.19,12.73205
11891.12,12.89731
11893.05,12.8641
11894.98,12.80623
11896.91,12.95585
11898.83,13.09592
11900.76,13.00517
11902.69,12.8244
11904.62,12.86249
11906.55,12.89187
11908.48,12.83486
11910.41,12.77964
11912.33,12.82354
11914.26,12.86034
11916.19,12.80221
11918.12,12.81399
11920.05,12.92962
11921.98,13.00519
11923.91,12.79376
11925.83,12.81136
11927.76,12.83603
11929.69,12.91579
11931.62,13.01776
11933.55,12.94803
11935.48,12.86312
11937.41,12.80505
11939.33,12.69484
11941.26,12.90212
11943.19,12.94639
11945.12,12.78821
11947.05,12.74887
11948.98,12.7977
11950.9,12.68097
11952.83,12.58632
11954.76,12.70853
11956.69,12.89626
11958.62,12.94282
11960.55,12.83552
11962.48,12.82417
11964.4,12.93263
11966.33,12.87024
11968.26,12.71017
11970.19,12.82699
11972.12,12.85684
11974.05,12.80965
11975.98,12.83166
11977.9,12.86905
11979.83,12.78719
11981.76,12.97336
11983.69,12.81302
11985.62,12.65253
11987.55,12.69284
11989.47,12.81634
11991.4,12.94087
11993.33,12.9083
11995.26,12.81411
11997.19,12.8835
11999.12,12.8805
