Wavenumber,Intensity
3999.706,2.36836
4001.634,2.364207
4003.563,2.362672
4005.491,2.362214
4007.42,2.365644
4009.348,2.372542
4011.277,2.373335
4013.205,2.369567
4015.134,2.368001
4017.062,2.371784
4018.991,2.37232
4020.919,2.372571
4022.848,2.372979
4024.776,2.371885
4026.705,2.371404
4028.633,2.375671
4030.562,2.376006
4032.49,2.380831
4034.419,2.383034
4036.347,2.377073
4038.276,2.372014
4040.204,2.375642
4042.133,2.379614
4044.061,2.3815
4045.99,2.378199
4047.918,2.375941
4049.847,2.377713
4051.775,2.378662
4053.704,2.379431
4055.632,2.379719
4057.561,2.378776
4059.489,2.376388
4061.418,2.375003
4063.346,2.380301
4065.275,2.3832
4067.203,2.381416
4069.132,2.383926
4071.06,2.387689
4072.989,2.3897
4074.917,2.390818
4076.846,2.393402
4078.774,2.396311
4080.703,2.395142
4082.631,2.394284
4084.56,2.391188
4086.488,2.38999
4088.417,2.391465
4090.345,2.393078
4092.274,2.398379
4094.202,2.398161
4096.131,2.394541
4098.059,2.397855
4099.988,2.399266
4101.916,2.400928
4103.845,2.403649
4105.773,2.400433
4107.702,2.398813
4109.63,2.401374
4111.559,2.401464
4113.487,2.403162
4115.416,2.405933
4117.344,2.404829
4119.273,2.403603
4121.201,2.399674
4123.13,2.400137
4125.058,2.401172
4126.987,2.405015
4128.915,2.407881
4130.844,2.405937
4132.772,2.406806
4134.701,2.407937
4136.629,2.404918
4138.558,2.402813
4140.486,2.402513
4142.415,2.405335
4144.343,2.405594
4146.271,2.405951
4148.2,2.408323
4150.129,2.40864
4152.057,2.408386
4153.986,2.407982
4155.914,2.409479
4157.843,2.408315
4159.771,2.403782
4161.7,2.407328
4163.628,2.411492
4165.557,2.412817
4167.485,2.412337
4169.414,2.410592
4171.342,2.41349
4173.271,2.417162
4175.199,2.41952
4177.127,2.425017
4179.056,2.423764
4180.985,2.422966
4182.913,2.421014
4184.842,2.421458
4186.77,2.4222
4188.699,2.426462
4190.627,2.426437
4192.556,2.42469
4194.484,2.429735
4196.413,2.435044
4198.341,2.43419
4200.27,2.435047
4202.198,2.437091
4204.126,2.440298
4206.055,2.439485
4207.983,2.439601
4209.912,2.439631
4211.841,2.442467
4213.769,2.443343
4215.698,2.448069
4217.626,2.450033
4219.555,2.447761
4221.483,2.451381
4223.412,2.453128
4225.34,2.452429
4227.269,2.451776
4229.197,2.451937
4231.125,2.45198
4233.054,2.452103
4234.982,2.456619
4236.911,2.461742
4238.84,2.459973
4240.768,2.454086
4242.697,2.456443
4244.625,2.457946
4246.554,2.457392
4248.482,2.459658
4250.411,2.46233
4252.339,2.462507
4254.268,2.460851
4256.196,2.464427
4258.125,2.466309
4260.053,2.468962
4261.981,2.470218
4263.91,2.469409
4265.838,2.471347
4267.767,2.47476
4269.696,2.472083
4271.624,2.471166
4273.553,2.472518
4275.481,2.472914
4277.41,2.472541
4279.338,2.472961
4281.267,2.475911
4283.195,2.477422
4285.124,2.478242
4287.052,2.475874
4288.98,2.476057
4290.909,2.479012
4292.837,2.480801
4294.766,2.480632
4296.694,2.48046
4298.623,2.48059
4300.552,2.480847
4302.48,2.479412
4304.409,2.479483
4306.337,2.478718
4308.266,2.4768
4310.194,2.475695
4312.123,2.47725
4314.051,2.47649
4315.979,2.475889
4317.908,2.476469
4319.836,2.476716
4321.765,2.477707
4323.693,2.478261
4325.622,2.478967
4327.551,2.476126
4329.479,2.474932
4331.408,2.475735
4333.336,2.475599
4335.265,2.476221
4337.193,2.479886
4339.122,2.48526
4341.05,2.487536
4342.979,2.485211
4344.907,2.488161
4346.835,2.484323
4348.764,2.484523
4350.692,2.48772
4352.621,2.490031
4354.549,2.491967
4356.478,2.490522
4358.407,2.487465
4360.335,2.488999
4362.264,2.489632
4364.192,2.489962
4366.121,2.491999
4368.049,2.49252
4369.978,2.490338
4371.906,2.49053
4373.834,2.490547
4375.763,2.491034
4377.691,2.489872
4379.62,2.488924
4381.548,2.488349
4383.477,2.485306
4385.405,2.481777
4387.334,2.482792
4389.263,2.48312
4391.191,2.482228
4393.12,2.482156
4395.048,2.480329
4396.977,2.481128
4398.905,2.482882
4400.833,2.483218
4402.762,2.482537
4404.69,2.487101
4406.619,2.491322
4408.547,2.490655
4410.476,2.493373
4412.404,2.495768
4414.333,2.49681
4416.262,2.498907
4418.19,2.503808
4420.119,2.506538
4422.047,2.512673
4423.976,2.518739
4425.904,2.527165
4427.833,2.540987
4429.761,2.554595
4431.689,2.568627
4433.618,2.586893
4435.546,2.609894
4437.475,2.634997
4439.403,2.659923
4441.332,2.684988
4443.26,2.709845
4445.189,2.732992
4447.117,2.753935
4449.046,2.777478
4450.975,2.80205
4452.903,2.824954
4454.832,2.845917
4456.76,2.868948
4458.688,2.88782
4460.617,2.902777
4462.545,2.917853
4464.474,2.934485
4466.402,2.950484
4468.331,2.964045
4470.259,2.975114
4472.188,2.985827
4474.116,2.996053
4476.045,3.008435
4477.974,3.019296
4479.902,3.02796
4481.831,3.035082
4483.759,3.042646
4485.688,3.050272
4487.616,3.054231
4489.544,3.059769
4491.473,3.067416
4493.401,3.072681
4495.33,3.075615
4497.258,3.077434
4499.187,3.082247
4501.115,3.087819
4503.044,3.090104
4504.972,3.093963
4506.901,3.097151
4508.83,3.098531
4510.758,3.10533
4512.687,3.113406
4514.615,3.114187
4516.543,3.114433
4518.472,3.122675
4520.4,3.130249
4522.329,3.132876
4524.257,3.135468
4526.186,3.140524
4528.114,3.145931
4530.043,3.152385
4531.971,3.15439
4533.9,3.15915
4535.828,3.166414
4537.757,3.170947
4539.686,3.171811
4541.614,3.171572
4543.542,3.174455
4545.471,3.178147
4547.399,3.175772
4549.328,3.175626
4551.256,3.175853
4553.185,3.175545
4555.113,3.17888
4557.042,3.18284
4558.97,3.182063
4560.899,3.186419
4562.827,3.18942
4564.756,3.191837
4566.685,3.193543
4568.613,3.197614
4570.542,3.205453
4572.47,3.213437
4574.398,3.224228
4576.327,3.238147
4578.255,3.244572
4580.184,3.252228
4582.112,3.269264
4584.041,3.285297
4585.969,3.298734
4587.898,3.315441
4589.826,3.331483
4591.755,3.345572
4593.683,3.363489
4595.612,3.37884
4597.54,3.395509
4599.469,3.410903
4601.397,3.424232
4603.326,3.435595
4605.254,3.450232
4607.183,3.465115
4609.111,3.476495
4611.04,3.485962
4612.968,3.494853
4614.897,3.501411
4616.825,3.508134
4618.754,3.514009
4620.682,3.524146
4622.611,3.532538
4624.539,3.537653
4626.468,3.542867
4628.396,3.549396
4630.325,3.555816
4632.253,3.559168
4634.182,3.565954
4636.11,3.573842
4638.039,3.580029
4639.967,3.586958
4641.896,3.599846
4643.824,3.611299
4645.753,3.620476
4647.681,3.628476
4649.61,3.636116
4651.538,3.646333
4653.467,3.655693
4655.396,3.664378
4657.324,3.674553
4659.252,3.684371
4661.181,3.696428
4663.109,3.708219
4665.038,3.717621
4666.966,3.727828
4668.895,3.738585
4670.823,3.745417
4672.752,3.751206
4674.68,3.756459
4676.609,3.763397
4678.537,3.773952
4680.466,3.780984
4682.394,3.784975
4684.323,3.791187
4686.251,3.797279
4688.18,3.799916
4690.108,3.799287
4692.037,3.804113
4693.965,3.80814
4695.894,3.81292
4697.822,3.814562
4699.751,3.818088
4701.679,3.821899
4703.608,3.825507
4705.536,3.831329
4707.465,3.83297
4709.393,3.832771
4711.322,3.837517
4713.25,3.842109
4715.179,3.846607
4717.107,3.848895
4719.036,3.845815
4720.964,3.84533
4722.893,3.845549
4724.821,3.845213
4726.75,3.847001
4728.678,3.845804
4730.606,3.847211
4732.535,3.849611
4734.464,3.853009
4736.392,3.855545
4738.321,3.859299
4740.249,3.863148
4742.178,3.865345
4744.106,3.866644
4746.035,3.865482
4747.963,3.864425
4749.892,3.863352
4751.82,3.860178
4753.749,3.85866
4755.677,3.857254
4757.605,3.854313
4759.534,3.848959
4761.463,3.844504
4763.391,3.838053
4765.32,3.834695
4767.248,3.83154
4769.177,3.829389
4771.105,3.8269
4773.034,3.821233
4774.962,3.815862
4776.891,3.811377
4778.819,3.807958
4780.748,3.803828
4782.676,3.798271
4784.604,3.794481
4786.533,3.793143
4788.462,3.789547
4790.39,3.785624
4792.319,3.784458
4794.247,3.783818
4796.176,3.786638
4798.104,3.788307
4800.033,3.787125
4801.961,3.785661
4803.89,3.78418
4805.818,3.788222
4807.747,3.792904
4809.675,3.79147
4811.604,3.789508
4813.532,3.791324
4815.46,3.793675
4817.389,3.796034
4819.317,3.796767
4821.246,3.800062
4823.175,3.799321
4825.103,3.801393
4827.032,3.807455
4828.96,3.807797
4830.889,3.806239
4832.817,3.80705
4834.746,3.80559
4836.674,3.805898
4838.603,3.805926
4840.531,3.802505
4842.459,3.79723
4844.388,3.797053
4846.316,3.798957
4848.245,3.797352
4850.174,3.796413
4852.102,3.797924
4854.031,3.802154
4855.959,3.809131
4857.888,3.812708
4859.816,3.813278
4861.745,3.819603
4863.673,3.8256
4865.602,3.826033
4867.53,3.827425
4869.458,3.832044
4871.387,3.837817
4873.315,3.841841
4875.244,3.845844
4877.172,3.849659
4879.101,3.853678
4881.03,3.854594
4882.958,3.857628
4884.887,3.859452
4886.815,3.858998
4888.744,3.859899
4890.672,3.863666
4892.601,3.867075
4894.529,3.869614
4896.458,3.870295
4898.386,3.868227
4900.314,3.86726
4902.243,3.864431
4904.171,3.863941
4906.1,3.863798
4908.028,3.862503
4909.957,3.860721
4911.886,3.855383
4913.814,3.84986
4915.743,3.846435
4917.671,3.843313
4919.6,3.842012
4921.528,3.84272
4923.457,3.841962
4925.385,3.841321
4927.313,3.840354
4929.242,3.839599
4931.17,3.836195
4933.099,3.835057
4935.027,3.834183
4936.956,3.83453
4938.885,3.829345
4940.813,3.826738
4942.742,3.828018
4944.67,3.826459
4946.599,3.82079
4948.527,3.813798
4950.456,3.80971
4952.384,3.806106
4954.313,3.803172
4956.241,3.799922
4958.169,3.79579
4960.098,3.793145
4962.026,3.78667
4963.955,3.781498
4965.883,3.776139
4967.812,3.774637
4969.74,3.773282
4971.669,3.770392
4973.598,3.766008
4975.526,3.762413
4977.455,3.759548
4979.383,3.75454
4981.312,3.750537
4983.24,3.743855
4985.168,3.738547
4987.097,3.736752
4989.025,3.732773
4990.954,3.727747
4992.882,3.720884
4994.811,3.714656
4996.739,3.710341
4998.668,3.703485
5000.597,3.695486
5002.525,3.688546
5004.454,3.678446
5006.382,3.671744
5008.311,3.665402
5010.239,3.656714
5012.167,3.646686
5014.096,3.639414
5016.024,3.629802
5017.953,3.616912
5019.881,3.607415
5021.81,3.599587
5023.738,3.589511
5025.667,3.577981
5027.596,3.566848
5029.524,3.55851
5031.452,3.552577
5033.381,3.546442
5035.31,3.537508
5037.238,3.530863
5039.167,3.527951
5041.095,3.522723
5043.023,3.517018
5044.952,3.511404
5046.88,3.5073
5048.809,3.506786
5050.737,3.504325
5052.666,3.501251
5054.595,3.501999
5056.523,3.501643
5058.451,3.497305
5060.38,3.498266
5062.309,3.502703
5064.237,3.501099
5066.166,3.499229
5068.094,3.501355
5070.022,3.501495
5071.951,3.500098
5073.879,3.502803
5075.808,3.506715
5077.736,3.509984
5079.665,3.515709
5081.593,3.519518
5083.522,3.523421
5085.45,3.528141
5087.379,3.530037
5089.308,3.534909
5091.236,3.53757
5093.165,3.539414
5095.093,3.541774
5097.021,3.544648
5098.95,3.545215
5100.878,3.547163
5102.807,3.550879
5104.735,3.554005
5106.664,3.55706
5108.592,3.560809
5110.521,3.564811
5112.449,3.566971
5114.378,3.568015
5116.307,3.570455
5118.235,3.576232
5120.163,3.576793
5122.092,3.576458
5124.021,3.576987
5125.949,3.577579
5127.877,3.574477
5129.806,3.574442
5131.734,3.576257
5133.663,3.575475
5135.591,3.574409
5137.52,3.57224
5139.448,3.573797
5141.377,3.573985
5143.305,3.572145
5145.234,3.571216
5147.162,3.573318
5149.091,3.573712
5151.02,3.57396
5152.948,3.575295
5154.876,3.58257
5156.805,3.584895
5158.733,3.582454
5160.662,3.579197
5162.59,3.580315
5164.519,3.578239
5166.447,3.577543
5168.376,3.580113
5170.304,3.579777
5172.233,3.578318
5174.161,3.58203
5176.09,3.58347
5178.019,3.584135
5179.947,3.586298
5181.875,3.58746
5183.804,3.595363
5185.732,3.589413
5187.661,3.584284
5189.589,3.583846
5191.518,3.57942
5193.446,3.574701
5195.375,3.573906
5197.303,3.572959
5199.232,3.555656
5201.16,3.548589
5203.089,3.548988
5205.018,3.560648
5206.946,3.554828
5208.874,3.536431
5210.803,3.520297
5212.731,3.515732
5214.66,3.513979
5216.588,3.519842
5218.517,3.519005
5220.445,3.518283
5222.374,3.527084
5224.302,3.545341
5226.231,3.542127
5228.159,3.532746
5230.088,3.541014
5232.016,3.544608
5233.945,3.543646
5235.873,3.546479
5237.802,3.549883
5239.73,3.547578
5241.659,3.555862
5243.587,3.56736
5245.516,3.566096
5247.444,3.567688
5249.373,3.552403
5251.301,3.545043
5253.229,3.553297
5255.158,3.549165
5257.087,3.531792
5259.015,3.52944
5260.944,3.534646
5262.872,3.540946
5264.801,3.531214
5266.729,3.520068
5268.658,3.518708
5270.586,3.51084
5272.515,3.507658
5274.443,3.506589
5276.372,3.503786
5278.3,3.508914
5280.229,3.509755
5282.157,3.504989
5284.086,3.509472
5286.014,3.504771
5287.943,3.505298
5289.871,3.515032
5291.8,3.509674
5293.729,3.507528
5295.657,3.509829
5297.585,3.514818
5299.514,3.516982
5301.442,3.5194
5303.371,3.520764
5305.299,3.526019
5307.228,3.528484
5309.156,3.522118
5311.085,3.521647
5313.013,3.524297
5314.941,3.528504
5316.87,3.528413
5318.799,3.528769
5320.727,3.528627
5322.656,3.528141
5324.584,3.536177
5326.513,3.548605
5328.441,3.538949
5330.37,3.539314
5332.298,3.541475
5334.227,3.54077
5336.155,3.560391
5338.084,3.569212
5340.012,3.553348
5341.94,3.558795
5343.869,3.579416
5345.798,3.570219
5347.726,3.569276
5349.655,3.56645
5351.583,3.578511
5353.512,3.589027
5355.44,3.571818
5357.369,3.564076
5359.297,3.566419
5361.226,3.572774
5363.154,3.572001
5365.083,3.561672
5367.011,3.554292
5368.939,3.547388
5370.868,3.540168
5372.797,3.539299
5374.725,3.538187
5376.654,3.525978
5378.582,3.501299
5380.511,3.488453
5382.439,3.483263
5384.368,3.486311
5386.296,3.47077
5388.225,3.448316
5390.153,3.441063
5392.082,3.443684
5394.01,3.437806
5395.938,3.422796
5397.867,3.409012
5399.796,3.394324
5401.724,3.389059
5403.652,3.378701
5405.581,3.366294
5407.51,3.361656
5409.438,3.364795
5411.367,3.351341
5413.295,3.336411
5415.224,3.30227
5417.152,3.279291
5419.081,3.264363
5421.009,3.256329
5422.938,3.248106
5424.866,3.240632
5426.795,3.237546
5428.723,3.232625
5430.651,3.208599
5432.58,3.206684
5434.509,3.199579
5436.437,3.179211
5438.366,3.175266
5440.294,3.179207
5442.223,3.161215
5444.151,3.155798
5446.08,3.1457
5448.008,3.135418
5449.937,3.122262
5451.865,3.106714
5453.793,3.102753
5455.722,3.097944
5457.65,3.093739
5459.579,3.098183
5461.508,3.090472
5463.436,3.081781
5465.365,3.077563
5467.293,3.078012
5469.222,3.071988
5471.15,3.061424
5473.079,3.06906
5475.007,3.076377
5476.936,3.058644
5478.864,3.054994
5480.792,3.052487
5482.721,3.051605
5484.649,3.055616
5486.578,3.05983
5488.507,3.060792
5490.435,3.063186
5492.363,3.069432
5494.292,3.056553
5496.221,3.055193
5498.149,3.060058
5500.078,3.058399
5502.006,3.061399
5503.935,3.065334
5505.863,3.072026
5507.792,3.077318
5509.72,3.070803
5511.648,3.068864
5513.577,3.07051
5515.505,3.075667
5517.434,3.076611
5519.362,3.077885
5521.291,3.080688
5523.22,3.079582
5525.148,3.076355
5527.077,3.080523
5529.005,3.080773
5530.934,3.081966
5532.862,3.086075
5534.791,3.089716
5536.719,3.090879
5538.647,3.088845
5540.576,3.092689
5542.504,3.098472
5544.433,3.103315
5546.361,3.105252
5548.29,3.104819
5550.219,3.108467
5552.147,3.110968
5554.076,3.110048
5556.004,3.112676
5557.933,3.115246
5559.861,3.114273
5561.79,3.114791
5563.718,3.117269
5565.646,3.117498
5567.575,3.120153
5569.503,3.123219
5571.432,3.122113
5573.36,3.122798
5575.289,3.121481
5577.218,3.119179
5579.146,3.118198
5581.074,3.119004
5583.003,3.120975
5584.932,3.12563
5586.86,3.12765
5588.789,3.125943
5590.717,3.127893
5592.646,3.1232
5594.574,3.123552
5596.502,3.125484
5598.431,3.118914
5600.359,3.113032
5602.288,3.110141
5604.216,3.102739
5606.145,3.093941
5608.073,3.085105
5610.002,3.076645
5611.931,3.066975
5613.859,3.053081
5615.788,3.04265
5617.716,3.037707
5619.645,3.030021
5621.573,3.020518
5623.501,3.009568
5625.43,3.000618
5627.358,2.995992
5629.287,2.98949
5631.215,2.98045
5633.144,2.973836
5635.072,2.966849
5637.001,2.960958
5638.93,2.953203
5640.858,2.943106
5642.786,2.935195
5644.715,2.92685
5646.644,2.923148
5648.572,2.917238
5650.5,2.911533
5652.429,2.911049
5654.357,2.908464
5656.286,2.908535
5658.214,2.908233
5660.143,2.905287
5662.071,2.903866
5664.0,2.904486
5665.929,2.90554
5667.857,2.904262
5669.785,2.906947
5671.714,2.908424
5673.643,2.908964
5675.571,2.906834
5677.5,2.904773
5679.428,2.90646
5681.356,2.907139
5683.285,2.907985
5685.213,2.90924
5687.142,2.906394
5689.07,2.903258
5690.999,2.901252
5692.927,2.899514
5694.856,2.899191
5696.784,2.901319
5698.713,2.899698
5700.642,2.893783
5702.57,2.887847
5704.499,2.886418
5706.427,2.889179
5708.355,2.889172
5710.284,2.890049
5712.212,2.889826
5714.141,2.886839
5716.069,2.885776
5717.998,2.882822
5719.926,2.879268
5721.855,2.874874
5723.783,2.868851
5725.712,2.863191
5727.641,2.854255
5729.569,2.845283
5731.497,2.837502
5733.426,2.82291
5735.354,2.804719
5737.283,2.790929
5739.211,2.773805
5741.14,2.762774
5743.068,2.750229
5744.997,2.737999
5746.925,2.725752
5748.854,2.711111
5750.782,2.70063
5752.711,2.695589
5754.639,2.692522
5756.568,2.689256
5758.496,2.687998
5760.425,2.691159
5762.354,2.694291
5764.282,2.69495
5766.21,2.699095
5768.139,2.702054
5770.067,2.702983
5771.996,2.702508
5773.924,2.702717
5775.853,2.705712
5777.781,2.703212
5779.71,2.70127
5781.638,2.694674
5783.567,2.687007
5785.495,2.684391
5787.424,2.682077
5789.353,2.677348
5791.281,2.673151
5793.209,2.673635
5795.138,2.672533
5797.066,2.675954
5798.995,2.678211
5800.923,2.676132
5802.852,2.676346
5804.78,2.679406
5806.709,2.685968
5808.637,2.690785
5810.566,2.699408
5812.494,2.711507
5814.423,2.718859
5816.352,2.72336
5818.28,2.729858
5820.208,2.733684
5822.137,2.738996
5824.065,2.743777
5825.994,2.747332
5827.922,2.749401
5829.851,2.748708
5831.779,2.745932
5833.708,2.74163
5835.636,2.738487
5837.565,2.732795
5839.493,2.725709
5841.422,2.718925
5843.35,2.715759
5845.279,2.712853
5847.207,2.705948
5849.136,2.698694
5851.064,2.699224
5852.993,2.693545
5854.921,2.683723
5856.85,2.685214
5858.778,2.688841
5860.707,2.689182
5862.635,2.693302
5864.563,2.695095
5866.492,2.701036
5868.421,2.710915
5870.349,2.723764
5872.278,2.735669
5874.206,2.752563
5876.135,2.768856
5878.063,2.785239
5879.992,2.799325
5881.92,2.814151
5883.849,2.826961
5885.777,2.832552
5887.706,2.831121
5889.634,2.827794
5891.563,2.824491
5893.491,2.825623
5895.42,2.831823
5897.348,2.835307
5899.277,2.833822
5901.205,2.829334
5903.134,2.824083
5905.063,2.818333
5906.991,2.8122
5908.919,2.812544
5910.848,2.827938
5912.776,2.856807
5914.705,2.898738
5916.633,2.955097
5918.562,3.027158
5920.49,3.117692
5922.419,3.219451
5924.347,3.332098
5926.276,3.454569
5928.204,3.578233
5930.133,3.697985
5932.061,3.818236
5933.99,3.940818
5935.918,4.060911
5937.847,4.174443
5939.775,4.280033
5941.704,4.384595
5943.632,4.482035
5945.561,4.569196
5947.489,4.656072
5949.418,4.740873
5951.346,4.815889
5953.274,4.888658
5955.203,4.954418
5957.132,5.015264
5959.06,5.075318
5960.989,5.13353
5962.917,5.185993
5964.846,5.235359
5966.774,5.283863
5968.703,5.328209
5970.631,5.373922
5972.56,5.412529
5974.488,5.449394
5976.417,5.483299
5978.345,5.519062
5980.273,5.548368
5982.202,5.577597
5984.131,5.604479
5986.059,5.631804
5987.988,5.656407
5989.916,5.679368
5991.845,5.696174
5993.773,5.714302
5995.702,5.730366
5997.63,5.747018
5999.559,5.763187
6001.487,5.778056
6003.416,5.78837
6005.344,5.802897
6007.272,5.814391
6009.201,5.825174
6011.13,5.836276
6013.058,5.850191
6014.986,5.861469
6016.915,5.872859
6018.844,5.885133
6020.772,5.896995
6022.701,5.903887
6024.629,5.913923
6026.558,5.922762
6028.486,5.932524
6030.415,5.939714
6032.343,5.947095
6034.271,5.949232
6036.2,5.953549
6038.129,5.961487
6040.057,5.965511
6041.985,5.966339
6043.914,5.968881
6045.843,5.967798
6047.771,5.969267
6049.7,5.968914
6051.628,5.969874
6053.557,5.972137
6055.485,5.977253
6057.414,5.978212
6059.342,5.971622
6061.271,5.968679
6063.199,5.972048
6065.128,5.970737
6067.056,5.972121
6068.984,5.973798
6070.913,5.969751
6072.842,5.968214
6074.77,5.974834
6076.698,5.971659
6078.627,5.96651
6080.556,5.96403
6082.484,5.966604
6084.413,5.96593
6086.341,5.965207
6088.27,5.963603
6090.198,5.960714
6092.126,5.961993
6094.055,5.9684
6095.983,5.97052
6097.912,5.973849
6099.841,5.975981
6101.769,5.981983
6103.697,5.992136
6105.626,5.996652
6107.555,5.997916
6109.483,6.007778
6111.412,6.016835
6113.34,6.023999
6115.269,6.035371
6117.197,6.046223
6119.125,6.057733
6121.054,6.069225
6122.982,6.080438
6124.911,6.092979
6126.84,6.100884
6128.768,6.113706
6130.696,6.129887
6132.625,6.145592
6134.554,6.16442
6136.482,6.184941
6138.41,6.203048
6140.339,6.226152
6142.268,6.245294
6144.196,6.266654
6146.125,6.291176
6148.053,6.320684
6149.981,6.345287
6151.91,6.369999
6153.839,6.397708
6155.767,6.431117
6157.695,6.463465
6159.624,6.491916
6161.553,6.525032
6163.481,6.56042
6165.409,6.592628
6167.338,6.625036
6169.267,6.662775
6171.195,6.695369
6173.124,6.728466
6175.052,6.763507
6176.98,6.7871
6178.909,6.814085
6180.837,6.848531
6182.766,6.878235
6184.694,6.903071
6186.623,6.9268
6188.552,6.949787
6190.48,6.973406
6192.408,6.995257
6194.337,7.013246
6196.266,7.031671
6198.194,7.047874
6200.123,7.05574
6202.051,7.066014
6203.979,7.076795
6205.908,7.085803
6207.836,7.093052
6209.765,7.099685
6211.693,7.106977
6213.622,7.112671
6215.551,7.118798
6217.479,7.133465
6219.407,7.143292
6221.336,7.153308
6223.265,7.165568
6225.193,7.17233
6227.121,7.181129
6229.05,7.191393
6230.979,7.198754
6232.907,7.204546
6234.835,7.210852
6236.764,7.221711
6238.692,7.227557
6240.621,7.236127
6242.549,7.248525
6244.478,7.258222
6246.406,7.265889
6248.335,7.280561
6250.264,7.290461
6252.192,7.30392
6254.12,7.315004
6256.049,7.328787
6257.978,7.347106
6259.906,7.360955
6261.834,7.371663
6263.763,7.387262
6265.691,7.397765
6267.62,7.410359
6269.548,7.424091
6271.477,7.438601
6273.405,7.447496
6275.334,7.454693
6277.263,7.46155
6279.191,7.473027
6281.119,7.48455
6283.048,7.496068
6284.977,7.503981
6286.905,7.511201
6288.833,7.514915
6290.762,7.519411
6292.69,7.526335
6294.619,7.532351
6296.547,7.538415
6298.476,7.548936
6300.404,7.555428
6302.333,7.562937
6304.262,7.57119
6306.19,7.575418
6308.118,7.577772
6310.047,7.58505
6311.976,7.596854
6313.904,7.610945
6315.832,7.623178
6317.761,7.631073
6319.689,7.636405
6321.618,7.651021
6323.546,7.665677
6325.475,7.674292
6327.403,7.686307
6329.332,7.698666
6331.26,7.70454
6333.189,7.713848
6335.117,7.725202
6337.046,7.735288
6338.975,7.744262
6340.903,7.754005
6342.831,7.76134
6344.76,7.772378
6346.688,7.780764
6348.617,7.786993
6350.545,7.795529
6352.474,7.801648
6354.402,7.80527
6356.331,7.809588
6358.259,7.813437
6360.188,7.819803
6362.116,7.822601
6364.045,7.825825
6365.974,7.829983
6367.902,7.83532
6369.83,7.838603
6371.759,7.843332
6373.688,7.849009
6375.616,7.855965
6377.544,7.860842
6379.473,7.869519
6381.401,7.875598
6383.33,7.885102
6385.258,7.892919
6387.187,7.893594
6389.115,7.896001
6391.044,7.906981
6392.973,7.914762
6394.901,7.918099
6396.829,7.923604
6398.758,7.929607
6400.687,7.93521
6402.615,7.94159
6404.543,7.942245
6406.472,7.944154
6408.4,7.946729
6410.329,7.950398
6412.257,7.950705
6414.186,7.946526
6416.114,7.945583
6418.043,7.950724
6419.971,7.951499
6421.9,7.947868
6423.828,7.949191
6425.757,7.951657
6427.686,7.95046
6429.614,7.94898
6431.542,7.948428
6433.471,7.949064
6435.399,7.947116
6437.328,7.94961
6439.256,7.946457
6441.185,7.950202
6443.113,7.949934
6445.042,7.947886
6446.97,7.946993
6448.898,7.947604
6450.827,7.943824
6452.756,7.941213
6454.685,7.940441
6456.613,7.945038
6458.541,7.944527
6460.47,7.941487
6462.398,7.938899
6464.327,7.935733
6466.255,7.930593
6468.184,7.928889
6470.112,7.929081
6472.041,7.929591
6473.969,7.928601
6475.897,7.927765
6477.826,7.921612
6479.755,7.917684
6481.684,7.914301
6483.612,7.914531
6485.54,7.913511
6487.469,7.909422
6489.397,7.905324
6491.326,7.902402
6493.254,7.899246
6495.183,7.896513
6497.111,7.888667
6499.04,7.882199
6500.968,7.878887
6502.896,7.873749
6504.825,7.86607
6506.754,7.853955
6508.682,7.842834
6510.61,7.836509
6512.539,7.829343
6514.468,7.820767
6516.396,7.80982
6518.325,7.799518
6520.253,7.787599
6522.182,7.778232
6524.11,7.767722
6526.039,7.757949
6527.967,7.749115
6529.896,7.736874
6531.824,7.724509
6533.753,7.712988
6535.681,7.69522
6537.609,7.680823
6539.538,7.671139
6541.467,7.656796
6543.396,7.641094
6545.324,7.625523
6547.252,7.612623
6549.181,7.604843
6551.109,7.58649
6553.038,7.567389
6554.966,7.553535
6556.895,7.540833
6558.823,7.523566
6560.752,7.50364
6562.68,7.482614
6564.608,7.464521
6566.537,7.440863
6568.466,7.42254
6570.394,7.402183
6572.323,7.381639
6574.251,7.359837
6576.18,7.33628
6578.108,7.319251
6580.037,7.30609
6581.965,7.287438
6583.894,7.275458
6585.822,7.258743
6587.751,7.244076
6589.679,7.231564
6591.607,7.221321
6593.536,7.212283
6595.465,7.204653
6597.393,7.195602
6599.321,7.182817
6601.25,7.16875
6603.179,7.157685
6605.107,7.146593
6607.036,7.13788
6608.964,7.12356
6610.893,7.113228
6612.821,7.100788
6614.75,7.087452
6616.678,7.078753
6618.606,7.068452
6620.535,7.052474
6622.464,7.039917
6624.392,7.024725
6626.32,7.010898
6628.249,7.000637
6630.178,6.985852
6632.106,6.969654
6634.035,6.953807
6635.963,6.93429
6637.892,6.916171
6639.82,6.897551
6641.749,6.878799
6643.677,6.856823
6645.605,6.837461
6647.534,6.821027
6649.463,6.799824
6651.391,6.775112
6653.319,6.760971
6655.248,6.74083
6657.177,6.720151
6659.105,6.695469
6661.034,6.675888
6662.962,6.657676
6664.891,6.635294
6666.819,6.609204
6668.748,6.586347
6670.676,6.565966
6672.604,6.541802
6674.533,6.520728
6676.462,6.502773
6678.39,6.479882
6680.318,6.460513
6682.247,6.444947
6684.176,6.426597
6686.104,6.40945
6688.032,6.390069
6689.961,6.371299
6691.89,6.359318
6693.818,6.347969
6695.747,6.336889
6697.675,6.325176
6699.604,6.309597
6701.532,6.300575
6703.46,6.295218
6705.389,6.29278
6707.317,6.285578
6709.246,6.276993
6711.175,6.271508
6713.103,6.274058
6715.031,6.271806
6716.96,6.268548
6718.889,6.266771
6720.817,6.264482
6722.746,6.260525
6724.674,6.261807
6726.603,6.260029
6728.531,6.252545
6730.459,6.252398
6732.388,6.248184
6734.316,6.247692
6736.245,6.246048
6738.174,6.241673
6740.102,6.233625
6742.03,6.228795
6743.959,6.226175
6745.888,6.224176
6747.816,6.223919
6749.745,6.217371
6751.673,6.21128
6753.602,6.211576
6755.53,6.208502
6757.458,6.206384
6759.387,6.206019
6761.315,6.200813
6763.244,6.197225
6765.173,6.195812
6767.101,6.18625
6769.029,6.181233
6770.958,6.17894
6772.887,6.174678
6774.815,6.167677
6776.743,6.161019
6778.672,6.149558
6780.601,6.137506
6782.529,6.130441
6784.458,6.123029
6786.386,6.108801
6788.314,6.09466
6790.243,6.084194
6792.171,6.071297
6794.1,6.051444
6796.028,6.03624
6797.957,6.022468
6799.886,6.008152
6801.814,5.991308
6803.742,5.979306
6805.671,5.964903
6807.6,5.947017
6809.528,5.937329
6811.457,5.925777
6813.385,5.912291
6815.313,5.898718
6817.242,5.893505
6819.17,5.880769
6821.099,5.872629
6823.027,5.861368
6824.956,5.850636
6826.885,5.846697
6828.813,5.837796
6830.741,5.830632
6832.67,5.82607
6834.599,5.818784
6836.527,5.807967
6838.455,5.800355
6840.384,5.788285
6842.313,5.775473
6844.241,5.758894
6846.169,5.751578
6848.098,5.743045
6850.026,5.732189
6851.955,5.719679
6853.884,5.706204
6855.812,5.692973
6857.74,5.678128
6859.669,5.664959
6861.598,5.656839
6863.526,5.644693
6865.454,5.638027
6867.383,5.633839
6869.312,5.623972
6871.24,5.614275
6873.168,5.608884
6875.097,5.599624
6877.025,5.594212
6878.954,5.58465
6880.882,5.571465
6882.811,5.560174
6884.739,5.553015
6886.668,5.540523
6888.597,5.524388
6890.525,5.507483
6892.453,5.490737
6894.382,5.475108
6896.311,5.454969
6898.239,5.433792
6900.167,5.415423
6902.096,5.395141
6904.024,5.384628
6905.953,5.370802
6907.881,5.357613
6909.81,5.349771
6911.738,5.342641
6913.667,5.333414
6915.596,5.328055
6917.524,5.317007
6919.452,5.306015
6921.381,5.299302
6923.31,5.289868
6925.238,5.286073
6927.166,5.276178
6929.095,5.260305
6931.023,5.247263
6932.952,5.232373
6934.88,5.221974
6936.809,5.210696
6938.737,5.190925
6940.666,5.17904
6942.594,5.164324
6944.523,5.15512
6946.451,5.145262
6948.38,5.134374
6950.309,5.128098
6952.237,5.126229
6954.165,5.126306
6956.094,5.127037
6958.022,5.123071
6959.951,5.119303
6961.879,5.118059
6963.808,5.105009
6965.736,5.093081
6967.665,5.085745
6969.593,5.076995
6971.521,5.062886
6973.45,5.051468
6975.379,5.042686
6977.308,5.033834
6979.236,5.029117
6981.164,5.027447
6983.093,5.022467
6985.021,5.013038
6986.95,5.001723
6988.878,4.995485
6990.807,4.987694
6992.735,4.980816
6994.664,4.979349
6996.592,4.982074
6998.521,4.982504
7000.449,4.982253
7002.378,4.983523
7004.307,4.984589
7006.235,4.987434
7008.163,4.989274
7010.092,4.994856
7012.021,5.006113
7013.949,5.009301
7015.877,5.009085
7017.806,5.008295
7019.734,5.007559
7021.663,5.007435
7023.591,4.996786
7025.52,4.987375
7027.448,4.978802
7029.377,4.971929
7031.305,4.955538
7033.234,4.938621
7035.162,4.921659
7037.091,4.90138
7039.02,4.874245
7040.948,4.851343
7042.876,4.832186
7044.805,4.812212
7046.733,4.793701
7048.662,4.769438
7050.59,4.746667
7052.519,4.726715
7054.447,4.707549
7056.376,4.689082
7058.304,4.664224
7060.232,4.652876
7062.161,4.650798
7064.09,4.636104
7066.019,4.631231
7067.947,4.62766
7069.875,4.623176
7071.804,4.617746
7073.732,4.612287
7075.661,4.609991
7077.589,4.613065
7079.518,4.620128
7081.446,4.622413
7083.375,4.630209
7085.303,4.64302
7087.231,4.659607
7089.16,4.675824
7091.089,4.694054
7093.018,4.720074
7094.946,4.73668
7096.874,4.750368
7098.803,4.766893
7100.731,4.778387
7102.66,4.783218
7104.588,4.799918
7106.517,4.798804
7108.445,4.787774
7110.374,4.77493
7112.302,4.763321
7114.23,4.752691
7116.159,4.750417
7118.088,4.720961
7120.016,4.685497
7121.944,4.658139
7123.873,4.627628
7125.802,4.60309
7127.73,4.569479
7129.659,4.538636
7131.587,4.507789
7133.516,4.487915
7135.444,4.469658
7137.373,4.440864
7139.301,4.408757
7141.229,4.373869
7143.158,4.34946
7145.087,4.317312
7147.015,4.283427
7148.943,4.25129
7150.872,4.221435
7152.801,4.201206
7154.729,4.18151
7156.658,4.163311
7158.586,4.154718
7160.515,4.155919
7162.443,4.146875
7164.372,4.159573
7166.3,4.179036
7168.229,4.190351
7170.157,4.204272
7172.086,4.229513
7174.014,4.253966
7175.942,4.288104
7177.871,4.324386
7179.8,4.357238
7181.729,4.384564
7183.657,4.4075
7185.585,4.433023
7187.514,4.452446
7189.442,4.469312
7191.371,4.48806
7193.299,4.5115
7195.228,4.52274
7197.156,4.527257
7199.085,4.538696
7201.013,4.547702
7202.941,4.560497
7204.87,4.560822
7206.799,4.5494
7208.727,4.551397
7210.655,4.552191
7212.584,4.547474
7214.513,4.541973
7216.441,4.537505
7218.37,4.54232
7220.298,4.537709
7222.227,4.53158
7224.155,4.545078
7226.083,4.560536
7228.012,4.579833
7229.94,4.617743
7231.869,4.652399
7233.798,4.659674
7235.726,4.691387
7237.654,4.735614
7239.583,4.788779
7241.512,4.833344
7243.44,4.849154
7245.369,4.860405
7247.297,4.880695
7249.226,4.899809
7251.154,4.927624
7253.083,4.947731
7255.011,4.952672
7256.939,4.961815
7258.868,4.973413
7260.797,4.99978
7262.725,5.018239
7264.653,5.032198
7266.582,5.051001
7268.511,5.067806
7270.439,5.094209
7272.368,5.120758
7274.296,5.140759
7276.225,5.160968
7278.153,5.185382
7280.082,5.209517
7282.01,5.237329
7283.938,5.267087
7285.867,5.302781
7287.796,5.323421
7289.724,5.338875
7291.652,5.37158
7293.581,5.406379
7295.51,5.413168
7297.438,5.439756
7299.366,5.467422
7301.295,5.485679
7303.224,5.515948
7305.152,5.558282
7307.081,5.578579
7309.009,5.597739
7310.938,5.634038
7312.866,5.64652
7314.794,5.668674
7316.723,5.682864
7318.651,5.703827
7320.58,5.729369
7322.509,5.760326
7324.437,5.775844
7326.365,5.806911
7328.294,5.820539
7330.223,5.819843
7332.151,5.82628
7334.08,5.833231
7336.008,5.841945
7337.937,5.862412
7339.865,5.873754
7341.793,5.884163
7343.722,5.901967
7345.65,5.913448
7347.579,5.940345
7349.508,5.966969
7351.436,6.003563
7353.364,6.058005
7355.293,6.118317
7357.222,6.168293
7359.15,6.244144
7361.079,6.337053
7363.007,6.439312
7364.936,6.53957
7366.864,6.647997
7368.792,6.752112
7370.721,6.854653
7372.649,6.958475
7374.578,7.07252
7376.507,7.166547
7378.435,7.267781
7380.363,7.369279
7382.292,7.45457
7384.221,7.531582
7386.149,7.611979
7388.077,7.689851
7390.006,7.767493
7391.935,7.839341
7393.863,7.903964
7395.792,7.958435
7397.72,8.007801
7399.648,8.049772
7401.577,8.095841
7403.505,8.145559
7405.434,8.186462
7407.362,8.216582
7409.291,8.249223
7411.22,8.28072
7413.148,8.316051
7415.076,8.347219
7417.005,8.374983
7418.934,8.399014
7420.862,8.42027
7422.791,8.433082
7424.719,8.451208
7426.647,8.470283
7428.576,8.490403
7430.504,8.512748
7432.433,8.524773
7434.361,8.540002
7436.29,8.552184
7438.219,8.553814
7440.147,8.56693
7442.075,8.580574
7444.004,8.593318
7445.933,8.602694
7447.861,8.610481
7449.789,8.620853
7451.718,8.624159
7453.646,8.631565
7455.575,8.638523
7457.503,8.637905
7459.432,8.649878
7461.36,8.657692
7463.289,8.656145
7465.218,8.659434
7467.146,8.669738
7469.074,8.672478
7471.003,8.680891
7472.932,8.681721
7474.86,8.687036
7476.788,8.694464
7478.717,8.697087
7480.646,8.69733
7482.574,8.705812
7484.502,8.712046
7486.431,8.714681
7488.359,8.715164
7490.288,8.71701
7492.216,8.717525
7494.145,8.722193
7496.073,8.72824
7498.002,8.73157
7499.931,8.729362
7501.859,8.732106
7503.787,8.730518
7505.716,8.735665
7507.645,8.742035
7509.573,8.743839
7511.501,8.739635
7513.43,8.739494
7515.358,8.747602
7517.287,8.749136
7519.215,8.751696
7521.144,8.764095
7523.072,8.76434
7525.001,8.764262
7526.93,8.766718
7528.858,8.763843
7530.786,8.765056
7532.715,8.764701
7534.644,8.769389
7536.572,8.774053
7538.5,8.769395
7540.429,8.769618
7542.357,8.771512
7544.286,8.775195
7546.214,8.777969
7548.143,8.778064
7550.071,8.781936
7552.0,8.775251
7553.928,8.766165
7555.857,8.768901
7557.785,8.77745
7559.714,8.779173
7561.643,8.780529
7563.571,8.78207
7565.499,8.780501
7567.428,8.774732
7569.356,8.774688
7571.285,8.77313
7573.213,8.769966
7575.142,8.771168
7577.07,8.766131
7578.999,8.766815
7580.927,8.77372
7582.855,8.77853
7584.784,8.779431
7586.713,8.77821
7588.642,8.768849
7590.57,8.76651
7592.498,8.773799
7594.427,8.774371
7596.355,8.773483
7598.284,8.773252
7600.212,8.769787
7602.141,8.76336
7604.069,8.755975
7605.998,8.753217
7607.926,8.759601
7609.854,8.757893
7611.783,8.758588
7613.712,8.760181
7615.641,8.755246
7617.569,8.755318
7619.497,8.752669
7621.426,8.746656
7623.354,8.744369
7625.283,8.743474
7627.211,8.743054
7629.14,8.739537
7631.068,8.73454
7632.997,8.7349
7634.925,8.744893
7636.854,8.738297
7638.782,8.734037
7640.711,8.735804
7642.639,8.733294
7644.568,8.735296
7646.496,8.730804
7648.425,8.726905
7650.354,8.727392
7652.282,8.726224
7654.21,8.715028
7656.139,8.714224
7658.067,8.714433
7659.996,8.718709
7661.924,8.719207
7663.853,8.709789
7665.781,8.70875
7667.71,8.709405
7669.638,8.702215
7671.566,8.693777
7673.495,8.687839
7675.424,8.686331
7677.353,8.685209
7679.281,8.684196
7681.209,8.683499
7683.138,8.674948
7685.066,8.674074
7686.995,8.67797
7688.923,8.669035
7690.852,8.666343
7692.78,8.668374
7694.709,8.658986
7696.637,8.65634
7698.565,8.655255
7700.494,8.65591
7702.423,8.651491
7704.352,8.643247
7706.28,8.637251
7708.208,8.63351
7710.137,8.635734
7712.065,8.637349
7713.994,8.626143
7715.922,8.624185
7717.851,8.618669
7719.779,8.611851
7721.708,8.610181
7723.636,8.60908
7725.564,8.600543
7727.493,8.594294
7729.422,8.586918
7731.35,8.583015
7733.279,8.58357
7735.207,8.584513
7737.136,8.574579
7739.064,8.564467
7740.993,8.558826
7742.921,8.557412
7744.85,8.558629
7746.778,8.553381
7748.707,8.544774
7750.635,8.540073
7752.563,8.533057
7754.492,8.535196
7756.421,8.53344
7758.349,8.523656
7760.277,8.517982
7762.206,8.513813
7764.135,8.517117
7766.063,8.515958
7767.992,8.51032
7769.92,8.498726
7771.849,8.489451
7773.777,8.486364
7775.706,8.4834
7777.634,8.478013
7779.563,8.474198
7781.491,8.466768
7783.42,8.467601
7785.348,8.45911
7787.276,8.446297
7789.205,8.447152
7791.134,8.441424
7793.063,8.438062
7794.991,8.44022
7796.919,8.431621
7798.848,8.421373
7800.776,8.418072
7802.705,8.414781
7804.633,8.407836
7806.562,8.396373
7808.49,8.393925
7810.419,8.385327
7812.347,8.374416
7814.275,8.368147
7816.204,8.363953
7818.133,8.367028
7820.061,8.362283
7821.989,8.346644
7823.918,8.33477
7825.847,8.327209
7827.775,8.321878
7829.704,8.311911
7831.632,8.302045
7833.561,8.29541
7835.489,8.287843
7837.417,8.276312
7839.346,8.270278
7841.274,8.265219
7843.203,8.248263
7845.132,8.232716
7847.06,8.22642
7848.988,8.224672
7850.917,8.217775
7852.846,8.205011
7854.774,8.190814
7856.703,8.180826
7858.631,8.177893
7860.56,8.168587
7862.488,8.159094
7864.417,8.151397
7866.345,8.134183
7868.273,8.117433
7870.202,8.117521
7872.131,8.113473
7874.059,8.105742
7875.987,8.091206
7877.916,8.074374
7879.845,8.067848
7881.773,8.055905
7883.702,8.045681
7885.63,8.037904
7887.559,8.027467
7889.487,8.011066
7891.416,7.994129
7893.344,7.978962
7895.272,7.966558
7897.201,7.954113
7899.13,7.934801
7901.058,7.932939
7902.986,7.920087
7904.915,7.914723
7906.844,7.90736
7908.772,7.889637
7910.7,7.876399
7912.629,7.861608
7914.558,7.842664
7916.486,7.828394
7918.415,7.812928
7920.343,7.799458
7922.271,7.783214
7924.2,7.764574
7926.128,7.755922
7928.057,7.745087
7929.985,7.717816
7931.914,7.694439
7933.843,7.682873
7935.771,7.671405
7937.699,7.649903
7939.628,7.627849
7941.557,7.616149
7943.485,7.601781
7945.414,7.585115
7947.342,7.576612
7949.271,7.5578
7951.199,7.545715
7953.127,7.534418
7955.056,7.514392
7956.984,7.496891
7958.913,7.485242
7960.842,7.468295
7962.77,7.450321
7964.698,7.434911
7966.627,7.41734
7968.556,7.396068
7970.484,7.378817
7972.413,7.364532
7974.341,7.354579
7976.27,7.337002
7978.198,7.319227
7980.126,7.308439
7982.055,7.297596
7983.983,7.281714
7985.912,7.264373
7987.841,7.237791
7989.769,7.221022
7991.697,7.209766
7993.626,7.189658
7995.555,7.168169
7997.483,7.149266
7999.411,7.136025
8001.34,7.118762
8003.269,7.093102
8005.197,7.07583
8007.125,7.062215
8009.054,7.048897
8010.982,7.029923
8012.911,7.005879
8014.839,6.976878
8016.768,6.96265
8018.696,6.945854
8020.625,6.912395
8022.554,6.890862
8024.482,6.875731
8026.41,6.853338
8028.339,6.825324
8030.268,6.805774
8032.196,6.79589
8034.125,6.77674
8036.053,6.757963
8037.981,6.728396
8039.91,6.702786
8041.838,6.691023
8043.767,6.67549
8045.695,6.647518
8047.624,6.612036
8049.553,6.593998
8051.481,6.574272
8053.409,6.540901
8055.338,6.522073
8057.267,6.506108
8059.195,6.471385
8061.124,6.445801
8063.052,6.430276
8064.98,6.407479
8066.909,6.388717
8068.837,6.362858
8070.766,6.337693
8072.694,6.307496
8074.623,6.282559
8076.552,6.255261
8078.48,6.231418
8080.408,6.209278
8082.337,6.181361
8084.266,6.155472
8086.194,6.126819
8088.122,6.099926
8090.051,6.077851
8091.979,6.05163
8093.908,6.019083
8095.836,5.987725
8097.765,5.96069
8099.693,5.936464
8101.622,5.91177
8103.551,5.878774
8105.479,5.851009
8107.407,5.820607
8109.336,5.792355
8111.265,5.755177
8113.192,5.722652
8115.121,5.703544
8117.05,5.67766
8118.979,5.643691
8120.907,5.607463
8122.835,5.585901
8124.764,5.557003
8126.692,5.518161
8128.621,5.491432
8130.55,5.47082
8132.478,5.445907
8134.406,5.416853
8136.335,5.383807
8138.264,5.363342
8140.191,5.338459
8142.12,5.303542
8144.049,5.265155
8145.978,5.237096
8147.906,5.204131
8149.834,5.169757
8151.763,5.148396
8153.691,5.133939
8155.62,5.098513
8157.548,5.062117
8159.477,5.035972
8161.405,5.007775
8163.334,4.976119
8165.263,4.948713
8167.19,4.92515
8169.119,4.899927
8171.048,4.869065
8172.977,4.853123
8174.905,4.828842
8176.833,4.803771
8178.762,4.787281
8180.69,4.766799
8182.619,4.737057
8184.547,4.701964
8186.476,4.692708
8188.404,4.683491
8190.333,4.653904
8192.262,4.622229
8194.189,4.598739
8196.118,4.582069
8198.047,4.568585
8199.976,4.557698
8201.903,4.541206
8203.832,4.530985
8205.761,4.513984
8207.689,4.493103
8209.618,4.475063
8211.546,4.464684
8213.475,4.448459
8215.403,4.437207
8217.332,4.433163
8219.261,4.422321
8221.188,4.406027
8223.117,4.395235
8225.046,4.385086
8226.975,4.371868
8228.902,4.363447
8230.831,4.367227
8232.76,4.35945
8234.688,4.34071
8236.617,4.342495
8238.545,4.357401
8240.474,4.355394
8242.402,4.349646
8244.331,4.351297
8246.259,4.349216
8248.188,4.354557
8250.116,4.365408
8252.045,4.367683
8253.974,4.360682
8255.901,4.353851
8257.83,4.360973
8259.759,4.373466
8261.688,4.387153
8263.616,4.395809
8265.544,4.397168
8267.473,4.406445
8269.401,4.414165
8271.33,4.436453
8273.258,4.451124
8275.187,4.458514
8277.115,4.468375
8279.044,4.467839
8280.973,4.465061
8282.9,4.487575
8284.829,4.50023
8286.758,4.496549
8288.687,4.498683
8290.614,4.507167
8292.543,4.509062
8294.472,4.505343
8296.4,4.509191
8298.329,4.506795
8300.257,4.505442
8302.186,4.497962
8304.114,4.49364
8306.043,4.489396
8307.972,4.490936
8309.899,4.474036
8311.828,4.455508
8313.757,4.443643
8315.686,4.446828
8317.613,4.445453
8319.542,4.431466
8321.471,4.421763
8323.399,4.413317
8325.328,4.401503
8327.256,4.388374
8329.185,4.382293
8331.113,4.376266
8333.042,4.370583
8334.97,4.381574
8336.898,4.384846
8338.827,4.371969
8340.756,4.375639
8342.685,4.375826
8344.612,4.376136
8346.541,4.376372
8348.47,4.373405
8350.398,4.376595
8352.327,4.374482
8354.255,4.357316
8356.184,4.346352
8358.112,4.350793
8360.041,4.341747
8361.969,4.325729
8363.897,4.304359
8365.826,4.293506
8367.755,4.278106
8369.684,4.271937
8371.611,4.256718
8373.54,4.246121
8375.469,4.236632
8377.397,4.236168
8379.325,4.228891
8381.254,4.220117
8383.183,4.210614
8385.111,4.19929
8387.04,4.189653
8388.968,4.191447
8390.896,4.194761
8392.825,4.208857
8394.754,4.221565
8396.683,4.220613
8398.61,4.232559
8400.539,4.250852
8402.468,4.252417
8404.396,4.26463
8406.324,4.285069
8408.253,4.304451
8410.182,4.317659
8412.11,4.330924
8414.039,4.356146
8415.967,4.377422
8417.896,4.389153
8419.824,4.40686
8421.753,4.426736
8423.681,4.452681
8425.609,4.483865
8427.538,4.507873
8429.467,4.529808
8431.396,4.554314
8433.323,4.57822
8435.252,4.602978
8437.181,4.636341
8439.109,4.66644
8441.037,4.696535
8442.966,4.727008
8444.895,4.757785
8446.823,4.783311
8448.752,4.81459
8450.68,4.856582
8452.608,4.895411
8454.537,4.927849
8456.466,4.965564
8458.395,5.013311
8460.322,5.051056
8462.251,5.074502
8464.18,5.094783
8466.108,5.11836
8468.036,5.162209
8469.965,5.205143
8471.894,5.241553
8473.822,5.268976
8475.751,5.297906
8477.679,5.325428
8479.607,5.341529
8481.536,5.360759
8483.465,5.388114
8485.393,5.408526
8487.321,5.422081
8489.25,5.429021
8491.179,5.443937
8493.107,5.449105
8495.035,5.451931
8496.964,5.467392
8498.893,5.47541
8500.821,5.483655
8502.75,5.506688
8504.678,5.518478
8506.606,5.521916
8508.535,5.530688
8510.464,5.538686
8512.392,5.539159
8514.32,5.556152
8516.249,5.574739
8518.178,5.587853
8520.106,5.606897
8522.034,5.626252
8523.963,5.65122
8525.892,5.676733
8527.82,5.694639
8529.748,5.71993
8531.677,5.743271
8533.605,5.755178
8535.534,5.771764
8537.463,5.802369
8539.391,5.826124
8541.319,5.852268
8543.248,5.865602
8545.177,5.887589
8547.105,5.918761
8549.033,5.935758
8550.962,5.959577
8552.891,5.979382
8554.819,6.007493
8556.747,6.035683
8558.676,6.074962
8560.604,6.105505
8562.533,6.114279
8564.462,6.131689
8566.39,6.167484
8568.318,6.206496
8570.247,6.224751
8572.176,6.242583
8574.104,6.278287
8576.032,6.302594
8577.961,6.330143
8579.89,6.350952
8581.818,6.373594
8583.746,6.409252
8585.675,6.43767
8587.604,6.465478
8589.532,6.49033
8591.461,6.517467
8593.389,6.532676
8595.317,6.548223
8597.246,6.577258
8599.175,6.614245
8601.103,6.653114
8603.031,6.682902
8604.96,6.711173
8606.889,6.736353
8608.817,6.758188
8610.745,6.796191
8612.674,6.825915
8614.603,6.844926
8616.531,6.858271
8618.459,6.878442
8620.388,6.888735
8622.316,6.87919
8624.245,6.881473
8626.174,6.883803
8628.102,6.870252
8630.03,6.848807
8631.959,6.831551
8633.888,6.816131
8635.816,6.801881
8637.744,6.786326
8639.673,6.761173
8641.602,6.741472
8643.53,6.733166
8645.458,6.73696
8647.387,6.72784
8649.315,6.71137
8651.244,6.710254
8653.173,6.722456
8655.101,6.717386
8657.029,6.716346
8658.958,6.736165
8660.887,6.750268
8662.814,6.757788
8664.743,6.758893
8666.672,6.75405
8668.601,6.77082
8670.529,6.788238
8672.457,6.791082
8674.386,6.789271
8676.314,6.800398
8678.243,6.818575
8680.172,6.826724
8682.1,6.838748
8684.028,6.854352
8685.957,6.872802
8687.886,6.900989
8689.813,6.931851
8691.742,6.961799
8693.671,6.991945
8695.6,7.034328
8697.528,7.071295
8699.456,7.110466
8701.385,7.156233
8703.313,7.223972
8705.242,7.277171
8707.17,7.314677
8709.099,7.369534
8711.027,7.420243
8712.956,7.467592
8714.885,7.529262
8716.813,7.587889
8718.741,7.63628
8720.67,7.699444
8722.599,7.749213
8724.527,7.787657
8726.455,7.827489
8728.384,7.863946
8730.313,7.914994
8732.241,7.965927
8734.169,8.006377
8736.098,8.035249
8738.026,8.068609
8739.955,8.097187
8741.884,8.132014
8743.812,8.16921
8745.74,8.210552
8747.669,8.248811
8749.598,8.281633
8751.525,8.311335
8753.454,8.345252
8755.383,8.379667
8757.312,8.413717
8759.24,8.45049
8761.168,8.481092
8763.097,8.514539
8765.025,8.555446
8766.954,8.594889
8768.882,8.621851
8770.811,8.666456
8772.739,8.706337
8774.668,8.73033
8776.597,8.76066
8778.524,8.788185
8780.453,8.818265
8782.382,8.855777
8784.311,8.895312
8786.239,8.924371
8788.167,8.958999
8790.096,8.994893
8792.024,9.027943
8793.953,9.044933
8795.881,9.061662
8797.81,9.092439
8799.738,9.130396
8801.667,9.158017
8803.596,9.181193
8805.523,9.202129
8807.452,9.21644
8809.381,9.229144
8811.31,9.261034
8813.237,9.273871
8815.166,9.289383
8817.095,9.289664
8819.023,9.290716
8820.952,9.317053
8822.88,9.335804
8824.809,9.342539
8826.737,9.34849
8828.666,9.35572
8830.595,9.366681
8832.522,9.37351
8834.451,9.378496
8836.38,9.387547
8838.309,9.387085
8840.236,9.401373
8842.165,9.422685
8844.094,9.442191
8846.022,9.452114
8847.951,9.463821
8849.879,9.481984
8851.808,9.494022
8853.736,9.509518
8855.665,9.526506
8857.593,9.540175
8859.521,9.542692
8861.45,9.547143
8863.379,9.554371
8865.308,9.57984
8867.235,9.604546
8869.164,9.610437
8871.093,9.624009
8873.021,9.614725
8874.95,9.616488
8876.878,9.627407
8878.807,9.635684
8880.735,9.639158
8882.664,9.649138
8884.592,9.659969
8886.521,9.658283
8888.449,9.661651
8890.378,9.666636
8892.307,9.676324
8894.234,9.669021
8896.163,9.671747
8898.092,9.682287
8900.021,9.679338
8901.948,9.678391
8903.877,9.678508
8905.806,9.706357
8907.734,9.715137
8909.663,9.703843
8911.591,9.695668
8913.52,9.703232
8915.448,9.716128
8917.377,9.718278
8919.306,9.722578
8921.233,9.73175
8923.162,9.724463
8925.091,9.71881
8927.02,9.732855
8928.947,9.746698
8930.876,9.744424
8932.805,9.751457
8934.733,9.76954
8936.662,9.760896
8938.59,9.752696
8940.519,9.767847
8942.447,9.778988
8944.376,9.77798
8946.304,9.778575
8948.232,9.784301
8950.161,9.783814
8952.09,9.783365
8954.019,9.79596
8955.946,9.801641
8957.875,9.787817
8959.804,9.795048
8961.732,9.810796
8963.661,9.792158
8965.589,9.793911
8967.518,9.809924
8969.446,9.824177
8971.375,9.826465
8973.303,9.819561
8975.231,9.828156
8977.16,9.838868
8979.089,9.833614
8981.018,9.844101
8982.945,9.853158
8984.874,9.850344
8986.803,9.84048
8988.731,9.840235
8990.659,9.852207
8992.588,9.854884
8994.517,9.856361
8996.445,9.858795
8998.374,9.86614
9000.302,9.862932
9002.23,9.855813
9004.159,9.865865
9006.088,9.876927
9008.017,9.886515
9009.944,9.871014
9011.873,9.880216
9013.802,9.89316
9015.73,9.895146
9017.658,9.896271
9019.587,9.896313
9021.516,9.879849
9023.444,9.86937
9025.373,9.88582
9027.301,9.908898
9029.229,9.912724
9031.158,9.888862
9033.087,9.874838
9035.015,9.885041
9036.943,9.898589
9038.872,9.886521
9040.801,9.88341
9042.729,9.899509
9044.657,9.90398
9046.586,9.896732
9048.515,9.892097
9050.443,9.897309
9052.372,9.90895
9054.3,9.913883
9056.229,9.912221
9058.157,9.915014
9060.086,9.912839
9062.014,9.906556
9063.942,9.910827
9065.871,9.917131
9067.8,9.925077
9069.729,9.928648
9071.656,9.91329
9073.585,9.908841
9075.514,9.915745
9077.442,9.907736
9079.37,9.911242
9081.299,9.922555
9083.228,9.931372
9085.156,9.92994
9087.085,9.929296
9089.013,9.929576
9090.941,9.920909
9092.87,9.910236
9094.799,9.91971
9096.727,9.925776
9098.655,9.926252
9100.584,9.931155
9102.513,9.939652
9104.441,9.938319
9106.369,9.931606
9108.298,9.939362
9110.227,9.92773
9112.155,9.9211
9114.084,9.921031
9116.012,9.931525
9117.94,9.921759
9119.869,9.913776
9121.798,9.916595
9123.726,9.92288
9125.654,9.932267
9127.583,9.93707
9129.512,9.930055
9131.44,9.924994
9133.368,9.92229
9135.297,9.921103
9137.226,9.924071
9139.154,9.925143
9141.082,9.908336
9143.011,9.908722
9144.939,9.907448
9146.868,9.912661
9148.797,9.911538
9150.725,9.91038
9152.653,9.910135
9154.582,9.915979
9156.511,9.904483
9158.439,9.900854
9160.367,9.915626
9162.296,9.918996
9164.225,9.907303
9166.153,9.89607
9168.081,9.891137
9170.01,9.90047
9171.938,9.904151
9173.867,9.900895
9175.796,9.901022
9177.724,9.910962
9179.652,9.902418
9181.581,9.893086
9183.51,9.890134
9185.438,9.884408
9187.366,9.887601
9189.295,9.896358
9191.224,9.885109
9193.152,9.877283
9195.08,9.864602
9197.009,9.850037
9198.938,9.852515
9200.866,9.857505
9202.795,9.861005
9204.723,9.856901
9206.651,9.842892
9208.58,9.835489
9210.509,9.839008
9212.437,9.840456
9214.365,9.832382
9216.294,9.839214
9218.223,9.841637
9220.151,9.843293
9222.079,9.837169
9224.008,9.828306
9225.937,9.829497
9227.865,9.823034
9229.793,9.810429
9231.722,9.817117
9233.65,9.82544
9235.579,9.808965
9237.508,9.814057
9239.436,9.833937
9241.364,9.836087
9243.293,9.828978
9245.222,9.807569
9247.15,9.799061
9249.078,9.804776
9251.007,9.810659
9252.936,9.805546
9254.864,9.798978
9256.792,9.801904
9258.721,9.802387
9260.649,9.781932
9262.578,9.775591
9264.507,9.774853
9266.435,9.783767
9268.363,9.792527
9270.292,9.790715
9272.221,9.778526
9274.148,9.768968
9276.077,9.762467
9278.006,9.768705
9279.935,9.758771
9281.863,9.749295
9283.791,9.749956
9285.72,9.749524
9287.648,9.736414
9289.577,9.722544
9291.506,9.718587
9293.434,9.733905
9295.362,9.734723
9297.291,9.740049
9299.22,9.718655
9301.147,9.723076
9303.076,9.721824
9305.005,9.720448
9306.934,9.716624
9308.862,9.713011
9310.79,9.702477
9312.719,9.704141
9314.647,9.716575
9316.576,9.711005
9318.504,9.71084
9320.433,9.695719
9322.361,9.681674
9324.29,9.678965
9326.219,9.681241
9328.146,9.690055
9330.075,9.694914
9332.004,9.695899
9333.933,9.688945
9335.861,9.687705
9337.789,9.675008
9339.718,9.666407
9341.646,9.663952
9343.575,9.662496
9345.503,9.672084
9347.432,9.67906
9349.36,9.671706
9351.289,9.649684
9353.218,9.645569
9355.146,9.664682
9357.074,9.659973
9359.003,9.644585
9360.932,9.63678
9362.859,9.630246
9364.788,9.626857
9366.717,9.63303
9368.646,9.637042
9370.574,9.63283
9372.502,9.631901
9374.431,9.633855
9376.359,9.646486
9378.288,9.647481
9380.217,9.640192
9382.145,9.638069
9384.073,9.642118
9386.002,9.645466
9387.931,9.646116
9389.858,9.623358
9391.787,9.610703
9393.716,9.621124
9395.645,9.628005
9397.573,9.636226
9399.501,9.620518
9401.43,9.613887
9403.358,9.61416
9405.287,9.61198
9407.215,9.608232
9409.144,9.60261
9411.072,9.610174
9413.001,9.612607
9414.93,9.631919
9416.857,9.644519
9418.786,9.63174
9420.715,9.627691
9422.644,9.622444
9424.571,9.622226
9426.5,9.645755
9428.429,9.630073
9430.357,9.598735
9432.286,9.595951
9434.214,9.610164
9436.143,9.620223
9438.071,9.624334
9440.0,9.605559
9441.929,9.59811
9443.856,9.60269
9445.785,9.60531
9447.714,9.603713
9449.643,9.613673
9451.57,9.59591
9453.499,9.571758
9455.428,9.579265
9457.356,9.602101
9459.285,9.607167
9461.213,9.575073
9463.142,9.557633
9465.07,9.564924
9466.999,9.573963
9468.927,9.580609
9470.855,9.575621
9472.784,9.579502
9474.713,9.576923
9476.642,9.558288
9478.569,9.564132
9480.498,9.577827
9482.427,9.570602
9484.355,9.58989
9486.284,9.586187
9488.212,9.569077
9490.141,9.559429
9492.069,9.560584
9493.998,9.567847
9495.926,9.554349
9497.854,9.560511
9499.783,9.57475
9501.712,9.574576
9503.641,9.547816
9505.568,9.524282
9507.497,9.552174
9509.426,9.553335
9511.354,9.538687
9513.282,9.534578
9515.211,9.534395
9517.14,9.532701
9519.068,9.523458
9520.997,9.519238
9522.925,9.529565
9524.854,9.523932
9526.782,9.53355
9528.711,9.542189
9530.64,9.529701
9532.567,9.518523
9534.496,9.514279
9536.425,9.524242
9538.354,9.524098
9540.281,9.522736
9542.21,9.505131
9544.139,9.502417
9546.067,9.509439
9547.996,9.51152
9549.924,9.527858
9551.853,9.50831
9553.781,9.497921
9555.71,9.531487
9557.638,9.533843
9559.566,9.539351
9561.495,9.529389
9563.424,9.517303
9565.353,9.529974
9567.28,9.532395
9569.209,9.539903
9571.138,9.5378
9573.066,9.526766
9574.995,9.526847
9576.923,9.536092
9578.852,9.528806
9580.78,9.537791
9582.709,9.53011
9584.637,9.525388
9586.565,9.534818
9588.494,9.535383
9590.423,9.555205
9592.352,9.550442
9594.279,9.530912
9596.208,9.537221
9598.137,9.551063
9600.065,9.548997
9601.993,9.544462
9603.922,9.541618
9605.851,9.562309
9607.779,9.55069
9609.708,9.528494
9611.636,9.541666
9613.564,9.559088
9615.493,9.549565
9617.422,9.540347
9619.351,9.54229
9621.278,9.542789
9623.207,9.55235
9625.136,9.561783
9627.064,9.56575
9628.992,9.570732
9630.921,9.570921
9632.85,9.559729
9634.778,9.53027
9636.707,9.528483
9638.635,9.527683
9640.563,9.520767
9642.492,9.519928
9644.421,9.523067
9646.349,9.517296
9648.277,9.506318
9650.206,9.517035
9652.135,9.530578
9654.063,9.50943
9655.991,9.515493
9657.92,9.525819
9659.849,9.516534
9661.777,9.501043
9663.706,9.517303
9665.634,9.528728
9667.563,9.530925
9669.491,9.515232
9671.42,9.516861
9673.348,9.517302
9675.276,9.515388
9677.205,9.511163
9679.134,9.511493
9681.063,9.508054
9682.99,9.503939
9684.919,9.508887
9686.848,9.49158
9688.776,9.490495
9690.704,9.509459
9692.633,9.513368
9694.562,9.517852
9696.49,9.518247
9698.419,9.507332
9700.347,9.500165
9702.275,9.508327
9704.204,9.504572
9706.133,9.504166
9708.062,9.517102
9709.989,9.521188
9711.918,9.495658
9713.847,9.489412
9715.775,9.49969
9717.703,9.500535
9719.632,9.49912
9721.561,9.484719
9723.489,9.475055
9725.418,9.480656
9727.346,9.493329
9729.274,9.501567
9731.203,9.500292
9733.132,9.480145
9735.06,9.494909
9736.988,9.485627
9738.917,9.472197
9740.846,9.463062
9742.774,9.455894
9744.702,9.460199
9746.631,9.473168
9748.56,9.444555
9750.488,9.440478
9752.416,9.455791
9754.345,9.461017
9756.273,9.466806
9758.202,9.461087
9760.131,9.438421
9762.059,9.422818
9763.987,9.44242
9765.916,9.453788
9767.845,9.436365
9769.773,9.43105
9771.701,9.461014
9773.63,9.446712
9775.559,9.431829
9777.487,9.437086
9779.415,9.421431
9781.344,9.406749
9783.272,9.410857
9785.201,9.421841
9787.13,9.425269
9789.058,9.423663
9790.986,9.417732
9792.915,9.388989
9794.844,9.3785
9796.771,9.410403
9798.7,9.402091
9800.629,9.407329
9802.558,9.410919
9804.486,9.414684
9806.414,9.397248
9808.343,9.391479
9810.271,9.409718
9812.2,9.410233
9814.129,9.410662
9816.057,9.421899
9817.985,9.423267
9819.914,9.425954
9821.843,9.447038
9823.771,9.442069
9825.699,9.451729
9827.628,9.452705
9829.557,9.427195
9831.485,9.431453
9833.413,9.450936
9835.342,9.435118
9837.271,9.446431
9839.199,9.471272
9841.127,9.476227
9843.056,9.490964
9844.984,9.517412
9846.913,9.528478
9848.842,9.530501
9850.77,9.50699
9852.698,9.502965
9854.627,9.516397
9856.556,9.533019
9858.484,9.555473
9860.412,9.565399
9862.341,9.5484
9864.27,9.551863
9866.198,9.583861
9868.126,9.578141
9870.055,9.577828
9871.983,9.58354
9873.912,9.587821
9875.841,9.608053
9877.769,9.614418
9879.697,9.627279
9881.626,9.61762
9883.555,9.612963
9885.482,9.633519
9887.411,9.65253
9889.34,9.68123
9891.269,9.696792
9893.197,9.699574
9895.125,9.688129
9897.054,9.706533
9898.982,9.727096
9900.911,9.718413
9902.84,9.749203
9904.768,9.757128
9906.696,9.74501
9908.625,9.747952
9910.554,9.749367
9912.481,9.746857
9914.41,9.738194
9916.339,9.753728
9918.268,9.752582
9920.196,9.766649
9922.124,9.779821
9924.053,9.808035
9925.981,9.818162
9927.91,9.803138
9929.838,9.788235
9931.767,9.811117
9933.695,9.842578
9935.624,9.84717
9937.553,9.848587
9939.48,9.858196
9941.409,9.868409
9943.338,9.845404
9945.267,9.820155
9947.195,9.834407
9949.123,9.844041
9951.052,9.847056
9952.98,9.869587
9954.909,9.875024
9956.837,9.890668
9958.766,9.906777
9960.694,9.88512
9962.623,9.881259
9964.552,9.907904
9966.479,9.932185
9968.408,9.924103
9970.337,9.921176
9972.266,9.923146
9974.193,9.918588
9976.122,9.907983
9978.051,9.91141
9979.979,9.940006
9981.908,9.945341
9983.836,9.944519
9985.765,9.957547
9987.693,9.924772
9989.622,9.902029
9991.551,9.929728
9993.479,9.945602
9995.407,9.948506
9997.336,9.954556
9999.265,9.951558
10001.19,9.957383
10003.12,9.957439
10005.05,9.941704
10006.98,9.933671
10008.91,9.937449
10010.83,9.961664
10012.76,9.958395
10014.69,9.940089
10016.62,9.971267
10018.55,9.996426
10020.48,9.996133
10022.41,9.984432
10024.33,9.968884
10026.26,9.977427
10028.19,9.998836
10030.12,10.03594
10032.05,10.04438
10033.98,10.04391
10035.91,10.04887
10037.83,10.05364
10039.76,10.0532
10041.69,10.06468
10043.62,10.08082
10045.55,10.08385
10047.48,10.08573
10049.41,10.11046
10051.33,10.11221
10053.26,10.09192
10055.19,10.10883
10057.12,10.11061
10059.05,10.11259
10060.98,10.12111
10062.9,10.14101
10064.83,10.175
10066.76,10.19058
10068.69,10.1751
10070.62,10.19721
10072.55,10.19087
10074.48,10.14737
10076.4,10.16004
10078.33,10.18197
10080.26,10.18754
10082.19,10.19064
10084.12,10.20838
10086.05,10.17823
10087.98,10.18738
10089.9,10.21907
10091.83,10.21313
10093.76,10.2162
10095.69,10.21783
10097.62,10.2038
10099.55,10.21555
10101.47,10.22485
10103.4,10.22983
10105.33,10.21167
10107.26,10.20663
10109.19,10.21828
10111.12,10.2212
10113.05,10.21369
10114.97,10.21399
10116.9,10.2405
10118.83,10.24697
10120.76,10.24737
10122.69,10.25652
10124.62,10.26445
10126.54,10.26872
10128.47,10.29623
10130.4,10.31333
10132.33,10.30352
10134.26,10.28762
10136.19,10.31015
10138.12,10.29429
10140.04,10.27865
10141.97,10.30844
10143.9,10.33026
10145.83,10.35408
10147.76,10.3432
10149.69,10.33198
10151.62,10.33039
10153.54,10.33918
10155.47,10.33278
10157.4,10.33522
10159.33,10.35254
10161.26,10.35051
10163.19,10.34438
10165.12,10.33323
10167.04,10.33938
10168.97,10.37102
10170.9,10.37357
10172.83,10.35007
10174.76,10.34779
10176.69,10.34148
10178.61,10.3756
10180.54,10.37144
10182.47,10.34587
10184.4,10.34468
10186.33,10.36048
10188.26,10.36067
10190.19,10.33909
10192.11,10.36676
10194.04,10.37429
10195.97,10.36446
10197.9,10.35512
10199.83,10.34919
10201.76,10.36599
10203.69,10.38208
10205.61,10.38212
10207.54,10.36898
10209.47,10.37589
10211.4,10.40567
10213.33,10.41596
10215.26,10.39251
10217.18,10.35822
10219.11,10.36987
10221.04,10.41043
10222.97,10.41492
10224.9,10.42873
10226.83,10.4341
10228.76,10.38862
10230.68,10.38648
10232.61,10.39685
10234.54,10.37553
10236.47,10.38653
10238.4,10.38458
10240.33,10.37222
10242.25,10.38116
10244.18,10.40641
10246.11,10.42499
10248.04,10.45404
10249.97,10.42687
10251.9,10.43123
10253.83,10.43114
10255.75,10.4376
10257.68,10.43595
10259.61,10.41421
10261.54,10.42838
10263.47,10.43772
10265.4,10.42529
10267.33,10.42099
10269.25,10.42509
10271.18,10.43455
10273.11,10.45094
10275.04,10.46064
10276.97,10.44787
10278.9,10.44926
10280.83,10.41965
10282.75,10.41007
10284.68,10.39509
10286.61,10.38023
10288.54,10.40205
10290.47,10.43465
10292.4,10.44748
10294.32,10.43166
10296.25,10.41541
10298.18,10.42248
10300.11,10.42266
10302.04,10.43378
10303.97,10.47019
10305.9,10.45582
10307.82,10.41658
10309.75,10.42624
10311.68,10.42339
10313.61,10.43925
10315.54,10.43788
10317.47,10.41791
10319.4,10.40348
10321.32,10.42208
10323.25,10.45393
10325.18,10.43245
10327.11,10.43535
10329.04,10.44895
10330.97,10.45798
10332.89,10.42392
10334.82,10.39384
10336.75,10.41404
10338.68,10.41648
10340.61,10.39184
10342.54,10.3963
10344.47,10.41091
10346.39,10.4209
10348.32,10.42953
10350.25,10.40649
10352.18,10.42867
10354.11,10.43034
10356.04,10.42202
10357.96,10.40208
10359.89,10.35475
10361.82,10.37238
10363.75,10.41936
10365.68,10.40762
10367.61,10.37813
10369.54,10.36716
10371.46,10.39018
10373.39,10.40477
10375.32,10.3935
10377.25,10.36409
10379.18,10.34593
10381.11,10.36387
10383.04,10.40162
10384.96,10.38603
10386.89,10.38266
10388.82,10.42224
10390.75,10.41391
10392.68,10.40189
10394.61,10.38754
10396.54,10.38732
10398.46,10.36266
10400.39,10.35856
10402.32,10.3573
10404.25,10.40077
10406.18,10.39829
10408.11,10.34714
10410.03,10.3483
10411.96,10.36773
10413.89,10.38976
10415.82,10.3672
10417.75,10.33631
10419.68,10.34088
10421.61,10.3762
10423.53,10.37555
10425.46,10.34201
10427.39,10.32287
10429.32,10.31129
10431.25,10.29691
10433.18,10.31261
10435.1,10.34638
10437.03,10.31822
10438.96,10.30014
10440.89,10.31674
10442.82,10.31087
10444.75,10.2913
10446.68,10.31584
10448.6,10.31719
10450.53,10.30972
10452.46,10.32276
10454.39,10.30786
10456.32,10.31013
10458.25,10.33791
10460.18,10.32322
10462.1,10.28382
10464.03,10.27292
10465.96,10.27615
10467.89,10.27857
10469.82,10.28108
10471.75,10.3029
10473.67,10.28985
10475.6,10.25482
10477.53,10.26512
10479.46,10.25708
10481.39,10.20309
10483.32,10.22636
10485.25,10.28392
10487.17,10.2457
10489.1,10.22218
10491.03,10.23843
10492.96,10.21183
10494.89,10.17775
10496.82,10.15634
10498.75,10.18124
10500.67,10.19289
10502.6,10.14869
10504.53,10.13827
10506.46,10.17458
10508.39,10.19181
10510.32,10.18063
10512.25,10.19361
10514.17,10.18877
10516.1,10.18324
10518.03,10.17584
10519.96,10.14863
10521.89,10.16245
10523.82,10.13028
10525.74,10.11169
10527.67,10.07965
10529.6,10.05645
10531.53,10.051
10533.46,10.07185
10535.39,10.07478
10537.32,10.02874
10539.24,10.02718
10541.17,10.04946
10543.1,10.09119
10545.03,10.06203
10546.96,10.02999
10548.89,10.01836
10550.81,10.01663
10552.74,10.00405
10554.67,10.00648
10556.6,9.986466
10558.53,9.927806
10560.46,9.92804
10562.39,9.991271
10564.31,9.959774
10566.24,9.926947
10568.17,9.906335
10570.1,9.924607
10572.03,9.933587
10573.96,9.896356
10575.89,9.842054
10577.81,9.841456
10579.74,9.876809
10581.67,9.844664
10583.6,9.768345
10585.53,9.760119
10587.46,9.771789
10589.38,9.762342
10591.31,9.74167
10593.24,9.746066
10595.17,9.74618
10597.1,9.749363
10599.03,9.746573
10600.96,9.747565
10602.88,9.719204
10604.81,9.680121
10606.74,9.667004
10608.67,9.635293
10610.6,9.66045
10612.53,9.689466
10614.46,9.645616
10616.38,9.60362
10618.31,9.622653
10620.24,9.603244
10622.17,9.617299
10624.1,9.624353
10626.03,9.573018
10627.96,9.589495
10629.88,9.569352
10631.81,9.553376
10633.74,9.521596
10635.67,9.472961
10637.6,9.485305
10639.53,9.487072
10641.45,9.473254
10643.38,9.446487
10645.31,9.463794
10647.24,9.469187
10649.17,9.452721
10651.1,9.429152
10653.03,9.42522
10654.95,9.438946
10656.88,9.436957
10658.81,9.42931
10660.74,9.394834
10662.67,9.371112
10664.6,9.411588
10666.52,9.398479
10668.45,9.336541
10670.38,9.322948
10672.31,9.367187
10674.24,9.381929
10676.17,9.36764
10678.1,9.38148
10680.02,9.369903
10681.95,9.359776
10683.88,9.349014
10685.81,9.320823
10687.74,9.296814
10689.67,9.33854
10691.59,9.325077
10693.52,9.332672
10695.45,9.326638
10697.38,9.311276
10699.31,9.316504
10701.24,9.311916
10703.17,9.310861
10705.09,9.330761
10707.02,9.319574
10708.95,9.279383
10710.88,9.270343
10712.81,9.269075
10714.74,9.312708
10716.67,9.330271
10718.59,9.308765
10720.52,9.310843
10722.45,9.329938
10724.38,9.320627
10726.31,9.295697
10728.24,9.302462
10730.17,9.299187
10732.09,9.267246
10734.02,9.307587
10735.95,9.313543
10737.88,9.271173
10739.81,9.284897
10741.74,9.341048
10743.67,9.335615
10745.59,9.296743
10747.52,9.297364
10749.45,9.338207
10751.38,9.33601
10753.31,9.343344
10755.24,9.334284
10757.16,9.292579
10759.09,9.251753
10761.02,9.274678
10762.95,9.310646
10764.88,9.339986
10766.81,9.339837
10768.74,9.29719
10770.66,9.288105
10772.59,9.29491
10774.52,9.255934
10776.45,9.257105
10778.38,9.287285
10780.31,9.28078
10782.23,9.284994
10784.16,9.304699
10786.09,9.287901
10788.02,9.338068
10789.95,9.360145
10791.88,9.299708
10793.81,9.278388
10795.73,9.330221
10797.66,9.34284
10799.59,9.322343
10801.52,9.318114
10803.45,9.349045
10805.38,9.286429
10807.3,9.250206
10809.23,9.234383
10811.16,9.27402
10813.09,9.29576
10815.02,9.255076
10816.95,9.210798
10818.88,9.231772
10820.8,9.247867
10822.73,9.274707
10824.66,9.252665
10826.59,9.20832
10828.52,9.215971
10830.45,9.227047
10832.38,9.217107
10834.3,9.253398
10836.23,9.270793
10838.16,9.26761
10840.09,9.252939
10842.02,9.272343
10843.95,9.253046
10845.88,9.233967
10847.8,9.253459
10849.73,9.22555
10851.66,9.207481
10853.59,9.212537
10855.52,9.187153
10857.45,9.157748
10859.38,9.124641
10861.3,9.139913
10863.23,9.154352
10865.16,9.167356
10867.09,9.166681
10869.02,9.18499
10870.95,9.207319
10872.87,9.163627
10874.8,9.098643
10876.73,9.112907
10878.66,9.143388
10880.59,9.171422
10882.52,9.169627
10884.45,9.152728
10886.37,9.204383
10888.3,9.195704
10890.23,9.17172
10892.16,9.193718
10894.09,9.204054
10896.02,9.175388
10897.94,9.187479
10899.87,9.211684
10901.8,9.220646
10903.73,9.177597
10905.66,9.174798
10907.59,9.18301
10909.52,9.125817
10911.44,9.132019
10913.37,9.173461
10915.3,9.182593
10917.23,9.164407
10919.16,9.176018
10921.09,9.179344
10923.01,9.133473
10924.94,9.145817
10926.87,9.210988
10928.8,9.152643
10930.73,9.109983
10932.66,9.104353
10934.59,9.170234
10936.51,9.20932
10938.44,9.181226
10940.37,9.175408
10942.3,9.144386
10944.23,9.087002
10946.16,9.093818
10948.09,9.068382
10950.01,9.065795
10951.94,9.107181
10953.87,9.154925
10955.8,9.144155
10957.73,9.089601
10959.66,9.127584
10961.58,9.129299
10963.51,9.078163
10965.44,9.111614
10967.37,9.141121
10969.3,9.091811
10971.23,9.085053
10973.16,9.103824
10975.08,9.112616
10977.01,9.166709
10978.94,9.156947
10980.87,9.166345
10982.8,9.218668
10984.73,9.227587
10986.66,9.240924
10988.58,9.219581
10990.51,9.21119
10992.44,9.24735
10994.37,9.288605
10996.3,9.288077
10998.23,9.290664
11000.16,9.305266
11002.08,9.305863
11004.01,9.28752
11005.94,9.318452
11007.87,9.372645
11009.8,9.37699
11011.73,9.33954
11013.65,9.357689
11015.58,9.38253
11017.51,9.357392
11019.44,9.370715
11021.37,9.461819
11023.3,9.564632
11025.23,9.558758
11027.15,9.495799
11029.08,9.458407
11031.01,9.511083
11032.94,9.560723
11034.87,9.539774
11036.8,9.569839
11038.72,9.604732
11040.65,9.592838
11042.58,9.62649
11044.51,9.659409
11046.44,9.662454
11048.37,9.632856
11050.3,9.597841
11052.22,9.702393
11054.15,9.745341
11056.08,9.751101
11058.01,9.752379
11059.94,9.730298
11061.87,9.723122
11063.79,9.705366
11065.72,9.691068
11067.65,9.741239
11069.58,9.775688
11071.51,9.746451
11073.44,9.826423
11075.37,9.846044
11077.29,9.794888
11079.22,9.791638
11081.15,9.866923
11083.08,9.840649
11085.01,9.813488
11086.94,9.866612
11088.87,9.905013
11090.79,9.887247
11092.72,9.915865
11094.65,9.935664
11096.58,10.02083
11098.51,10.02691
11100.44,10.00599
11102.37,9.99105
11104.29,10.00602
11106.22,10.04628
11108.15,10.05466
11110.08,10.05637
11112.01,10.04272
11113.94,10.03596
11115.87,10.07931
11117.79,10.06554
11119.72,10.03449
11121.65,10.10764
11123.58,10.1208
11125.51,10.05584
11127.44,10.05215
11129.36,10.13247
11131.29,10.16984
11133.22,10.21382
11135.15,10.25687
11137.08,10.22866
11139.01,10.1593
11140.94,10.22379
11142.86,10.31552
11144.79,10.29065
11146.72,10.29616
11148.65,10.28107
11150.58,10.25044
11152.51,10.27616
11154.43,10.27255
11156.36,10.24331
11158.29,10.30052
11160.22,10.28648
11162.15,10.31887
11164.08,10.33615
11166.01,10.3643
11167.93,10.37353
11169.86,10.34268
11171.79,10.35227
11173.72,10.38916
11175.65,10.34437
11177.58,10.35792
11179.5,10.40342
11181.43,10.36201
11183.36,10.33813
11185.29,10.41659
11187.22,10.43637
11189.15,10.4198
11191.08,10.44133
11193.0,10.44707
11194.93,10.38372
11196.86,10.41716
11198.79,10.47213
11200.72,10.48051
11202.65,10.43596
11204.58,10.42707
11206.5,10.44577
11208.43,10.41402
11210.36,10.44504
11212.29,10.58376
11214.22,10.53145
11216.15,10.44139
11218.08,10.4751
11220.0,10.46647
11221.93,10.53722
11223.86,10.52768
11225.79,10.47741
11227.72,10.44783
11229.65,10.47728
11231.58,10.55943
11233.5,10.51156
11235.43,10.47854
11237.36,10.5443
11239.29,10.54627
11241.22,10.50107
11243.15,10.46346
11245.07,10.42578
11247.0,10.49951
11248.93,10.56238
11250.86,10.54034
11252.79,10.56788
11254.72,10.60579
11256.65,10.5917
11258.57,10.55174
11260.5,10.55188
11262.43,10.5953
11264.36,10.54196
11266.29,10.49334
11268.22,10.54309
11270.14,10.58247
11272.07,10.59649
11274.0,10.56845
11275.93,10.52331
11277.86,10.54359
11279.79,10.5498
11281.72,10.52683
11283.64,10.58232
11285.57,10.63204
11287.5,10.60417
11289.43,10.53503
11291.36,10.49092
11293.29,10.56192
11295.21,10.61411
11297.14,10.61995
11299.07,10.61535
11301.0,10.54351
11302.93,10.54942
11304.86,10.53746
11306.79,10.54552
11308.71,10.5674
11310.64,10.63356
11312.57,10.66766
11314.5,10.56596
11316.43,10.57938
11318.36,10.58742
11320.29,10.65418
11322.21,10.69167
11324.14,10.61998
11326.07,10.61152
11328.0,10.69734
11329.93,10.726
11331.86,10.66578
11333.79,10.64627
11335.71,10.67185
11337.64,10.62232
11339.57,10.61078
11341.5,10.6697
11343.43,10.71767
11345.36,10.73176
11347.28,10.69321
11349.21,10.66324
11351.14,10.6709
11353.07,10.68339
11355.0,10.7189
11356.93,10.63152
11358.86,10.59203
11360.78,10.63474
11362.71,10.73745
11364.64,10.80554
11366.57,10.82798
11368.5,10.80396
11370.43,10.79544
11372.36,10.79426
11374.28,10.71458
11376.21,10.63736
11378.14,10.7137
11380.07,10.77211
11382.0,10.74359
11383.93,10.74127
11385.85,10.84352
11387.78,10.8218
11389.71,10.8177
11391.64,10.81782
11393.57,10.78698
11395.5,10.75358
11397.43,10.79197
11399.35,10.79546
11401.28,10.7506
11403.21,10.69862
11405.14,10.77042
11407.07,10.79139
11409.0,10.81412
11410.92,10.81794
11412.85,10.77924
11414.78,10.74192
11416.71,10.64897
11418.64,10.66964
11420.57,10.77962
11422.5,10.86796
11424.42,10.86025
11426.35,10.84629
11428.28,10.9003
11430.21,10.9159
11432.14,10.89083
11434.07,10.8615
11436.0,10.90383
11437.92,10.9466
11439.85,10.95206
11441.78,10.87086
11443.71,10.83775
11445.64,10.77717
11447.57,10.74994
11449.5,10.81839
11451.42,10.87248
11453.35,10.90366
11455.28,10.92193
11457.21,10.94053
11459.14,10.89057
11461.07,10.82105
11462.99,10.76229
11464.92,10.7865
11466.85,10.84857
11468.78,10.83948
11470.71,10.88688
11472.64,10.89892
11474.57,10.87671
11476.49,10.85859
11478.42,10.7774
11480.35,10.78735
11482.28,10.88544
11484.21,10.92141
11486.14,10.85372
11488.07,10.84938
11489.99,10.87048
11491.92,10.85977
11493.85,10.88424
11495.78,10.97117
11497.71,10.95093
11499.64,10.82456
11501.56,10.80616
11503.49,10.79174
11505.42,10.81055
11507.35,10.86983
11509.28,10.87618
11511.21,10.82864
11513.14,10.89396
11515.06,10.93944
11516.99,10.85611
11518.92,10.87304
11520.85,10.87033
11522.78,10.95351
11524.71,10.91671
11526.63,10.93782
11528.56,10.91992
11530.49,10.84754
11532.42,10.92017
11534.35,10.96157
11536.28,11.00114
11538.21,10.98786
11540.13,10.94006
11542.06,10.97748
11543.99,11.01232
11545.92,10.97301
11547.85,10.95907
11549.78,10.91143
11551.71,10.91472
11553.63,10.97614
11555.56,11.00235
11557.49,11.00197
11559.42,11.01374
11561.35,11.02863
11563.28,10.97659
11565.21,10.91628
11567.13,11.03974
11569.06,11.03164
11570.99,11.02789
11572.92,10.96127
11574.85,10.94746
11576.78,10.95715
11578.7,11.03323
11580.63,11.01081
11582.56,10.95111
11584.49,10.93235
11586.42,10.96836
11588.35,11.01737
11590.28,11.07454
11592.2,11.01199
11594.13,10.86037
11596.06,10.95227
11597.99,11.02708
11599.92,10.95874
11601.85,10.97808
11603.78,10.96657
11605.7,11.02733
11607.63,11.11504
11609.56,11.04751
11611.49,10.95553
11613.42,10.88393
11615.35,10.92154
11617.27,10.98874
11619.2,10.98347
11621.13,11.03971
11623.06,11.02269
11624.99,11.00938
11626.92,10.9305
11628.85,10.99016
11630.77,11.09161
11632.7,11.06065
11634.63,11.06725
11636.56,11.04882
11638.49,10.99807
11640.42,11.01593
11642.34,11.0685
11644.27,11.04449
11646.2,10.98154
11648.13,11.07519
11650.06,11.05868
11651.99,11.02837
11653.92,11.03386
11655.84,10.94507
11657.77,11.01373
11659.7,11.09422
11661.63,11.05026
11663.56,11.06983
11665.49,11.02886
11667.42,11.08433
11669.34,11.13334
11671.27,11.04937
11673.2,11.03543
11675.13,11.01159
11677.06,11.11323
11678.99,11.16079
11680.92,11.073
11682.84,10.98252
11684.77,11.02238
11686.7,11.10729
11688.63,11.1291
11690.56,11.17064
11692.49,11.00569
11694.41,10.90622
11696.34,10.92537
11698.27,10.96519
11700.2,11.06997
11702.13,11.11553
11704.06,11.06176
11705.99,11.00889
11707.91,10.94645
11709.84,10.97333
11711.77,11.08592
11713.7,11.18884
11715.63,11.16961
11717.56,11.15772
11719.48,11.16663
11721.41,11.07538
11723.34,11.0239
11725.27,11.08777
11727.2,11.05716
11729.13,11.01445
11731.06,10.99379
11732.98,11.11949
11734.91,11.25823
11736.84,11.14015
11738.77,11.04496
11740.7,11.18323
11742.63,11.16125
11744.56,11.09839
11746.48,11.0308
11748.41,11.0874
11750.34,11.15275
11752.27,11.1708
11754.2,11.2052
11756.13,11.06898
11758.05,11.01474
11759.98,11.06359
11761.91,10.99885
11763.84,11.08027
11765.77,11.14214
11767.7,11.20524
11769.63,11.26
11771.55,11.20377
11773.48,11.12021
11775.41,11.10341
11777.34,11.21438
11779.27,11.30089
11781.2,11.15277
11783.13,11.00773
11785.05,11.19933
11786.98,11.2907
11788.91,11.26334
11790.84,11.07209
11792.77,11.04362
11794.7,11.20671
11796.63,11.24658
11798.55,11.12999
11800.48,11.09537
11802.41,11.04307
11804.34,10.98802
11806.27,11.06719
11808.2,11.20725
11810.12,11.06419
11812.05,11.03888
11813.98,11.16855
11815.91,11.22689
11817.84,11.2303
11819.77,11.10656
11821.7,11.14879
11823.62,11.18776
11825.55,11.20391
11827.48,11.11298
11829.41,11.1908
11831.34,11.17938
11833.27,11.08271
11835.19,11.04292
11837.12,11.18398
11839.05,11.31097
11840.98,11.2951
11842.91,11.19411
11844.84,11.14382
11846.77,11.22327
11848.69,11.31063
11850.62,11.10601
11852.55,11.15235
11854.48,11.16589
11856.41,11.15198
11858.34,11.18005
11860.27,11.23122
11862.19,11.21463
11864.12,11.15809
11866.05,11.09376
11867.98,11.07926
11869.91,11.04907
11871.84,11.05802
11873.76,11.12823
11875.69,11.1164
11877.62,11.08715
11879.55,11.04149
11881.48,11.20078
11883.41,11.19548
11885.34,11.09534
11887.26,11.02945
11889.19,11.03349
11891.12,11.06453
11893.05,11.08589
11894.98,11.04051
11896.91,11.15848
11898.83,11.32726
11900.76,11.28679
11902.69,11.08267
11904.62,11.02704
11906.55,11.01838
11908.48,10.93274
11910.41,10.96047
11912.33,11.04189
11914.26,11.03327
11916.19,11.07101
11918.12,11.19984
11920.05,11.27072
11921.98,11.16589
11923.91,11.07302
11925.83,11.07458
11927.76,11.0919
11929.69,11.17511
11931.62,11.2754
11933.55,11.25909
11935.48,11.19091
11937.41,11.1278
11939.33,11.0075
11941.26,11.07185
11943.19,11.05136
11945.12,11.02643
11947.05,10.96836
11948.98,11.05265
11950.9,11.03746
11952.83,11.00786
11954.76,11.06452
11956.69,11.08184
11958.62,11.16392
11960.55,11.21196
11962.48,11.12863
11964.4,11.10693
11966.33,11.09359
11968.26,11.02868
11970.19,11.15946
11972.12,11.1157
11974.05,11.05131
11975.98,11.10355
11977.9,11.08522
11979.83,11.0497
11981.76,11.03114
11983.69,11.02246
11985.62,11.06977
11987.55,11.0259
11989.47,11.08934
11991.4,11.12997
11993.33,11.10854
11995.26,11.12326
11997.19,11.11724
11999.12,11.04733
