Wavenumber,Intensity
3999.706,2.868411
4001.634,2.869948
4003.563,2.872571
4005.491,2.872049
4007.42,2.870634
4009.348,2.87392
4011.277,2.878549
4013.205,2.881397
4015.134,2.877041
4017.062,2.879617
4018.991,2.882183
4020.919,2.880361
4022.848,2.881809
4024.776,2.885051
4026.705,2.886631
4028.633,2.887866
4030.562,2.88726
4032.49,2.887933
4034.419,2.891928
4036.347,2.892921
4038.276,2.889337
4040.204,2.889582
4042.133,2.894901
4044.061,2.897129
4045.99,2.893512
4047.918,2.88935
4049.847,2.892298
4051.775,2.894987
4053.704,2.893473
4055.632,2.892308
4057.561,2.892205
4059.489,2.892199
4061.418,2.89329
4063.346,2.897519
4065.275,2.901824
4067.203,2.900543
4069.132,2.896196
4071.06,2.898555
4072.989,2.901014
4074.917,2.904516
4076.846,2.906974
4078.774,2.908412
4080.703,2.908918
4082.631,2.908383
4084.56,2.911512
4086.488,2.916082
4088.417,2.91903
4090.345,2.917954
4092.274,2.918287
4094.202,2.921123
4096.131,2.919806
4098.059,2.917878
4099.988,2.915201
4101.916,2.917593
4103.845,2.918548
4105.773,2.917511
4107.702,2.919123
4109.63,2.919262
4111.559,2.91759
4113.487,2.919514
4115.416,2.921367
4117.344,2.922389
4119.273,2.922122
4121.201,2.924673
4123.13,2.92527
4125.058,2.926223
4126.987,2.924367
4128.915,2.922615
4130.844,2.923958
4132.772,2.925424
4134.701,2.926505
4136.629,2.925588
4138.558,2.926358
4140.486,2.930094
4142.415,2.931296
4144.343,2.92929
4146.271,2.930188
4148.2,2.92974
4150.129,2.927775
4152.057,2.929035
4153.986,2.930861
4155.914,2.932662
4157.843,2.931743
4159.771,2.930757
4161.7,2.93411
4163.628,2.933288
4165.557,2.932295
4167.485,2.9331
4169.414,2.931649
4171.342,2.937031
4173.271,2.941303
4175.199,2.940609
4177.127,2.941503
4179.056,2.944319
4180.985,2.94512
4182.913,2.947772
4184.842,2.94987
4186.77,2.94941
4188.699,2.951008
4190.627,2.954526
4192.556,2.95992
4194.484,2.961466
4196.413,2.960565
4198.341,2.959472
4200.27,2.960615
4202.198,2.965514
4204.126,2.96867
4206.055,2.967832
4207.983,2.970338
4209.912,2.974154
4211.841,2.976427
4213.769,2.976445
4215.698,2.979124
4217.626,2.983042
4219.555,2.985359
4221.483,2.986745
4223.412,2.988564
4225.34,2.987977
4227.269,2.988056
4229.197,2.98799
4231.125,2.989452
4233.054,2.991431
4234.982,2.989832
4236.911,2.990248
4238.84,2.991452
4240.768,2.991755
4242.697,2.994101
4244.625,2.996825
4246.554,2.997231
4248.482,2.999287
4250.411,3.004296
4252.339,3.004539
4254.268,3.003133
4256.196,3.004157
4258.125,3.004432
4260.053,3.006824
4261.981,3.010519
4263.91,3.01697
4265.838,3.017467
4267.767,3.015888
4269.696,3.016772
4271.624,3.016171
4273.553,3.015342
4275.481,3.016422
4277.41,3.016865
4279.338,3.017582
4281.267,3.019058
4283.195,3.020437
4285.124,3.023623
4287.052,3.0263
4288.98,3.026115
4290.909,3.025737
4292.837,3.025805
4294.766,3.026768
4296.694,3.025649
4298.623,3.023709
4300.552,3.0226
4302.48,3.022199
4304.409,3.021114
4306.337,3.019696
4308.266,3.018664
4310.194,3.019554
4312.123,3.023611
4314.051,3.025646
4315.979,3.023261
4317.908,3.027286
4319.836,3.026118
4321.765,3.024763
4323.693,3.022912
4325.622,3.021919
4327.551,3.022906
4329.479,3.023963
4331.408,3.025296
4333.336,3.025235
4335.265,3.028541
4337.193,3.030106
4339.122,3.031671
4341.05,3.034825
4342.979,3.034762
4344.907,3.035521
4346.835,3.041309
4348.764,3.043452
4350.692,3.040677
4352.621,3.038143
4354.549,3.041957
4356.478,3.043411
4358.407,3.0439
4360.335,3.042569
4362.264,3.040109
4364.192,3.044397
4366.121,3.042825
4368.049,3.040037
4369.978,3.038003
4371.906,3.037696
4373.834,3.040218
4375.763,3.039048
4377.691,3.037757
4379.62,3.038133
4381.548,3.040781
4383.477,3.039248
4385.405,3.033145
4387.334,3.035473
4389.263,3.035872
4391.191,3.033858
4393.12,3.032015
4395.048,3.033426
4396.977,3.033914
4398.905,3.032613
4400.833,3.03452
4402.762,3.038213
4404.69,3.040354
4406.619,3.039573
4408.547,3.036819
4410.476,3.039618
4412.404,3.040365
4414.333,3.039945
4416.262,3.042595
4418.19,3.045756
4420.119,3.045434
4422.047,3.047309
4423.976,3.053221
4425.904,3.05751
4427.833,3.059215
4429.761,3.063483
4431.689,3.069619
4433.618,3.078505
4435.546,3.090777
4437.475,3.100254
4439.403,3.10568
4441.332,3.11655
4443.26,3.132761
4445.189,3.143611
4447.117,3.152539
4449.046,3.166204
4450.975,3.180251
4452.903,3.191511
4454.832,3.203799
4456.76,3.217145
4458.688,3.225294
4460.617,3.233979
4462.545,3.243677
4464.474,3.251413
4466.402,3.262302
4468.331,3.270495
4470.259,3.276106
4472.188,3.282032
4474.116,3.28778
4476.045,3.296559
4477.974,3.304234
4479.902,3.308707
4481.831,3.312216
4483.759,3.316616
4485.688,3.31864
4487.616,3.32212
4489.544,3.324709
4491.473,3.328321
4493.401,3.334307
4495.33,3.337517
4497.258,3.335445
4499.187,3.333046
4501.115,3.336677
4503.044,3.338874
4504.972,3.339221
4506.901,3.34313
4508.83,3.348552
4510.758,3.353402
4512.687,3.358335
4514.615,3.359364
4516.543,3.359091
4518.472,3.35975
4520.4,3.364203
4522.329,3.370469
4524.257,3.375299
4526.186,3.37715
4528.114,3.379285
4530.043,3.384991
4531.971,3.387891
4533.9,3.388312
4535.828,3.393219
4537.757,3.398648
4539.686,3.400152
4541.614,3.398744
4543.542,3.403744
4545.471,3.404149
4547.399,3.406262
4549.328,3.409566
4551.256,3.409668
4553.185,3.410987
4555.113,3.411764
4557.042,3.412156
4558.97,3.415943
4560.899,3.42081
4562.827,3.424887
4564.756,3.429086
4566.685,3.427893
4568.613,3.428755
4570.542,3.433591
4572.47,3.43872
4574.398,3.448633
4576.327,3.455621
4578.255,3.461376
4580.184,3.468619
4582.112,3.476495
4584.041,3.487844
4585.969,3.499479
4587.898,3.507961
4589.826,3.519848
4591.755,3.535619
4593.683,3.548455
4595.612,3.556387
4597.54,3.569551
4599.469,3.582256
4601.397,3.59526
4603.326,3.604717
4605.254,3.616398
4607.183,3.626548
4609.111,3.632517
4611.04,3.637699
4612.968,3.642788
4614.897,3.648572
4616.825,3.655675
4618.754,3.662948
4620.682,3.666899
4622.611,3.6752
4624.539,3.682503
4626.468,3.684991
4628.396,3.691347
4630.325,3.693968
4632.253,3.695605
4634.182,3.70185
4636.11,3.710542
4638.039,3.714947
4639.967,3.720038
4641.896,3.725774
4643.824,3.734091
4645.753,3.741174
4647.681,3.746473
4649.61,3.756636
4651.538,3.765581
4653.467,3.771156
4655.396,3.777687
4657.324,3.787487
4659.252,3.796886
4661.181,3.803149
4663.109,3.811172
4665.038,3.819816
4666.966,3.827269
4668.895,3.838348
4670.823,3.848482
4672.752,3.852097
4674.68,3.856079
4676.609,3.866199
4678.537,3.87142
4680.466,3.874911
4682.394,3.878217
4684.323,3.882373
4686.251,3.885478
4688.18,3.888098
4690.108,3.892594
4692.037,3.894924
4693.965,3.895133
4695.894,3.898591
4697.822,3.905406
4699.751,3.906876
4701.679,3.908264
4703.608,3.914966
4705.536,3.922853
4707.465,3.925974
4709.393,3.927156
4711.322,3.928739
4713.25,3.928184
4715.179,3.92843
4717.107,3.933154
4719.036,3.934153
4720.964,3.932055
4722.893,3.931771
4724.821,3.934542
4726.75,3.937025
4728.678,3.93996
4730.606,3.938988
4732.535,3.938755
4734.464,3.941323
4736.392,3.943502
4738.321,3.948649
4740.249,3.951245
4742.178,3.950379
4744.106,3.950918
4746.035,3.954312
4747.963,3.953772
4749.892,3.954301
4751.82,3.951487
4753.749,3.947361
4755.677,3.944809
4757.605,3.943296
4759.534,3.940644
4761.463,3.936895
4763.391,3.932927
4765.32,3.929398
4767.248,3.925744
4769.177,3.925511
4771.105,3.922851
4773.034,3.920113
4774.962,3.916862
4776.891,3.913773
4778.819,3.911378
4780.748,3.91097
4782.676,3.905381
4784.604,3.899374
4786.533,3.901066
4788.462,3.901051
4790.39,3.896312
4792.319,3.898247
4794.247,3.897268
4796.176,3.897119
4798.104,3.90056
4800.033,3.900712
4801.961,3.900085
4803.89,3.901191
4805.818,3.899356
4807.747,3.9001
4809.675,3.901516
4811.604,3.901792
4813.532,3.902281
4815.46,3.904793
4817.389,3.907821
4819.317,3.909269
4821.246,3.909399
4823.175,3.910136
4825.103,3.91219
4827.032,3.9152
4828.96,3.914868
4830.889,3.915684
4832.817,3.916293
4834.746,3.918055
4836.674,3.918452
4838.603,3.9164
4840.531,3.912449
4842.459,3.910172
4844.388,3.911557
4846.316,3.912167
4848.245,3.910928
4850.174,3.911058
4852.102,3.911025
4854.031,3.915567
4855.959,3.92037
4857.888,3.919496
4859.816,3.92244
4861.745,3.928384
4863.673,3.931272
4865.602,3.93086
4867.53,3.933119
4869.458,3.938435
4871.387,3.94344
4873.315,3.947612
4875.244,3.953261
4877.172,3.955514
4879.101,3.956719
4881.03,3.957567
4882.958,3.956919
4884.887,3.957218
4886.815,3.960951
4888.744,3.962788
4890.672,3.967711
4892.601,3.971179
4894.529,3.969987
4896.458,3.969285
4898.386,3.969198
4900.314,3.97051
4902.243,3.968227
4904.171,3.965216
4906.1,3.962244
4908.028,3.960096
4909.957,3.959177
4911.886,3.958657
4913.814,3.957898
4915.743,3.958597
4917.671,3.958154
4919.6,3.957371
4921.528,3.957075
4923.457,3.956195
4925.385,3.956762
4927.313,3.95363
4929.242,3.951483
4931.17,3.949169
4933.099,3.948019
4935.027,3.948322
4936.956,3.946544
4938.885,3.942667
4940.813,3.940753
4942.742,3.938884
4944.67,3.93656
4946.599,3.93734
4948.527,3.935355
4950.456,3.931993
4952.384,3.930717
4954.313,3.928399
4956.241,3.921999
4958.169,3.915894
4960.098,3.914356
4962.026,3.914404
4963.955,3.912431
4965.883,3.90905
4967.812,3.904464
4969.74,3.904588
4971.669,3.902633
4973.598,3.896564
4975.526,3.894063
4977.455,3.890593
4979.383,3.886247
4981.312,3.885201
4983.24,3.881161
4985.168,3.876386
4987.097,3.872869
4989.025,3.871425
4990.954,3.867579
4992.882,3.862082
4994.811,3.858639
4996.739,3.853406
4998.668,3.847793
5000.597,3.84364
5002.525,3.840295
5004.454,3.836712
5006.382,3.829639
5008.311,3.823983
5010.239,3.816069
5012.167,3.805553
5014.096,3.799954
5016.024,3.795616
5017.953,3.787645
5019.881,3.780459
5021.81,3.773884
5023.738,3.765154
5025.667,3.757499
5027.596,3.751764
5029.524,3.745165
5031.452,3.740954
5033.381,3.733121
5035.31,3.727343
5037.238,3.726026
5039.167,3.723021
5041.095,3.718887
5043.023,3.717472
5044.952,3.712906
5046.88,3.709865
5048.809,3.707679
5050.737,3.705892
5052.666,3.703282
5054.595,3.703513
5056.523,3.70301
5058.451,3.70313
5060.38,3.705125
5062.309,3.704294
5064.237,3.705482
5066.166,3.705236
5068.094,3.704716
5070.022,3.707402
5071.951,3.709038
5073.879,3.708208
5075.808,3.710571
5077.736,3.712463
5079.665,3.716831
5081.593,3.720503
5083.522,3.723554
5085.45,3.725976
5087.379,3.728758
5089.308,3.731926
5091.236,3.731893
5093.165,3.735095
5095.093,3.740716
5097.021,3.742097
5098.95,3.74091
5100.878,3.742488
5102.807,3.744838
5104.735,3.748251
5106.664,3.754548
5108.592,3.756671
5110.521,3.756244
5112.449,3.758206
5114.378,3.761672
5116.307,3.764366
5118.235,3.76274
5120.163,3.764496
5122.092,3.768101
5124.021,3.768537
5125.949,3.767304
5127.877,3.767087
5129.806,3.767449
5131.734,3.768101
5133.663,3.765984
5135.591,3.763975
5137.52,3.763853
5139.448,3.760946
5141.377,3.761488
5143.305,3.765132
5145.234,3.766133
5147.162,3.762963
5149.091,3.76281
5151.02,3.767526
5152.948,3.768526
5154.876,3.769633
5156.805,3.770824
5158.733,3.770774
5160.662,3.768842
5162.59,3.768447
5164.519,3.770093
5166.447,3.771224
5168.376,3.77296
5170.304,3.77515
5172.233,3.777509
5174.161,3.773184
5176.09,3.770698
5178.019,3.772821
5179.947,3.776817
5181.875,3.777534
5183.804,3.780188
5185.732,3.780244
5187.661,3.777402
5189.589,3.776225
5191.518,3.773499
5193.446,3.772537
5195.375,3.770433
5197.303,3.768638
5199.232,3.761993
5201.16,3.756885
5203.089,3.751597
5205.018,3.750865
5206.946,3.74753
5208.874,3.738348
5210.803,3.733746
5212.731,3.731074
5214.66,3.727706
5216.588,3.727573
5218.517,3.731742
5220.445,3.731096
5222.374,3.734238
5224.302,3.744061
5226.231,3.747631
5228.159,3.743695
5230.088,3.746426
5232.016,3.748633
5233.945,3.745456
5235.873,3.747919
5237.802,3.7526
5239.73,3.752205
5241.659,3.753412
5243.587,3.761147
5245.516,3.761423
5247.444,3.759506
5249.373,3.755231
5251.301,3.747791
5253.229,3.748845
5255.158,3.747786
5257.087,3.739366
5259.015,3.736112
5260.944,3.740186
5262.872,3.741587
5264.801,3.740996
5266.729,3.735787
5268.658,3.731234
5270.586,3.726015
5272.515,3.724006
5274.443,3.724324
5276.372,3.721896
5278.3,3.724052
5280.229,3.725724
5282.157,3.723941
5284.086,3.724505
5286.014,3.723881
5287.943,3.722626
5289.871,3.730361
5291.8,3.73061
5293.729,3.727946
5295.657,3.728797
5297.585,3.732074
5299.514,3.734591
5301.442,3.732993
5303.371,3.732994
5305.299,3.736032
5307.228,3.738996
5309.156,3.73905
5311.085,3.739612
5313.013,3.738217
5314.941,3.740473
5316.87,3.743288
5318.799,3.741892
5320.727,3.741684
5322.656,3.743629
5324.584,3.743304
5326.513,3.748364
5328.441,3.748942
5330.37,3.748204
5332.298,3.752752
5334.227,3.750242
5336.155,3.755917
5338.084,3.764241
5340.012,3.762484
5341.94,3.760937
5343.869,3.771661
5345.798,3.773328
5347.726,3.770732
5349.655,3.76901
5351.583,3.777293
5353.512,3.788956
5355.44,3.781452
5357.369,3.773602
5359.297,3.770547
5361.226,3.777219
5363.154,3.779824
5365.083,3.772407
5367.011,3.76721
5368.939,3.762172
5370.868,3.75733
5372.797,3.751836
5374.725,3.742573
5376.654,3.73627
5378.582,3.728545
5380.511,3.717991
5382.439,3.710242
5384.368,3.704953
5386.296,3.701165
5388.225,3.691396
5390.153,3.683837
5392.082,3.676295
5394.01,3.674183
5395.938,3.669418
5397.867,3.666401
5399.796,3.655978
5401.724,3.64946
5403.652,3.642397
5405.581,3.636576
5407.51,3.626925
5409.438,3.623502
5411.367,3.616323
5413.295,3.605264
5415.224,3.590414
5417.152,3.579518
5419.081,3.570942
5421.009,3.562217
5422.938,3.555092
5424.866,3.550849
5426.795,3.547256
5428.723,3.542676
5430.651,3.536691
5432.58,3.530806
5434.509,3.523662
5436.437,3.514092
5438.366,3.503845
5440.294,3.503446
5442.223,3.500768
5444.151,3.494518
5446.08,3.487839
5448.008,3.484093
5449.937,3.480312
5451.865,3.474373
5453.793,3.468733
5455.722,3.466385
5457.65,3.463695
5459.579,3.45982
5461.508,3.457401
5463.436,3.455683
5465.365,3.449509
5467.293,3.446633
5469.222,3.447026
5471.15,3.445518
5473.079,3.445539
5475.007,3.447811
5476.936,3.442113
5478.864,3.437587
5480.792,3.438926
5482.721,3.43677
5484.649,3.43704
5486.578,3.438868
5488.507,3.441411
5490.435,3.440716
5492.363,3.442697
5494.292,3.43902
5496.221,3.434569
5498.149,3.439807
5500.078,3.442064
5502.006,3.440129
5503.935,3.440907
5505.863,3.445082
5507.792,3.448303
5509.72,3.44881
5511.648,3.452824
5513.577,3.453133
5515.505,3.453482
5517.434,3.454004
5519.362,3.456194
5521.291,3.456328
5523.22,3.456977
5525.148,3.456313
5527.077,3.455586
5529.005,3.457124
5530.934,3.459188
5532.862,3.459795
5534.791,3.461065
5536.719,3.461143
5538.647,3.460913
5540.576,3.462932
5542.504,3.462926
5544.433,3.46809
5546.361,3.471043
5548.29,3.474271
5550.219,3.475653
5552.147,3.475735
5554.076,3.475719
5556.004,3.473474
5557.933,3.476403
5559.861,3.480527
5561.79,3.481797
5563.718,3.482285
5565.646,3.483985
5567.575,3.482686
5569.503,3.480939
5571.432,3.480728
5573.36,3.481724
5575.289,3.480602
5577.218,3.483051
5579.146,3.484668
5581.074,3.48548
5583.003,3.484685
5584.932,3.486533
5586.86,3.487821
5588.789,3.485754
5590.717,3.486852
5592.646,3.487442
5594.574,3.486012
5596.502,3.485838
5598.431,3.482965
5600.359,3.480954
5602.288,3.477428
5604.216,3.473448
5606.145,3.470829
5608.073,3.464041
5610.002,3.453844
5611.931,3.449158
5613.859,3.44584
5615.788,3.441183
5617.716,3.433593
5619.645,3.425876
5621.573,3.421939
5623.501,3.419477
5625.43,3.414704
5627.358,3.410313
5629.287,3.404715
5631.215,3.402295
5633.144,3.402584
5635.072,3.397722
5637.001,3.391081
5638.93,3.386236
5640.858,3.380181
5642.786,3.375132
5644.715,3.370975
5646.644,3.367642
5648.572,3.363945
5650.5,3.363311
5652.429,3.363198
5654.357,3.361522
5656.286,3.360059
5658.214,3.359489
5660.143,3.362193
5662.071,3.364394
5664.0,3.36358
5665.929,3.362571
5667.857,3.362391
5669.785,3.36302
5671.714,3.363172
5673.643,3.361198
5675.571,3.358458
5677.5,3.360582
5679.428,3.364062
5681.356,3.364484
5683.285,3.364528
5685.213,3.362905
5687.142,3.359483
5689.07,3.360244
5690.999,3.361062
5692.927,3.357001
5694.856,3.357648
5696.784,3.361706
5698.713,3.36085
5700.642,3.358559
5702.57,3.357359
5704.499,3.355747
5706.427,3.356201
5708.355,3.355765
5710.284,3.353696
5712.212,3.35243
5714.141,3.351615
5716.069,3.348615
5717.998,3.350291
5719.926,3.351357
5721.855,3.34564
5723.783,3.342297
5725.712,3.338948
5727.641,3.333021
5729.569,3.330423
5731.497,3.326568
5733.426,3.318799
5735.354,3.311715
5737.283,3.304271
5739.211,3.299046
5741.14,3.296143
5743.068,3.287875
5744.997,3.278648
5746.925,3.272944
5748.854,3.265976
5750.782,3.261378
5752.711,3.258711
5754.639,3.257158
5756.568,3.256566
5758.496,3.254985
5760.425,3.256536
5762.354,3.256208
5764.282,3.260574
5766.21,3.263011
5768.139,3.262873
5770.067,3.26389
5771.996,3.264258
5773.924,3.26328
5775.853,3.262101
5777.781,3.259344
5779.71,3.258092
5781.638,3.257959
5783.567,3.256832
5785.495,3.254215
5787.424,3.252403
5789.353,3.250411
5791.281,3.252973
5793.209,3.254078
5795.138,3.251862
5797.066,3.251132
5798.995,3.252859
5800.923,3.249677
5802.852,3.252023
5804.78,3.252183
5806.709,3.254997
5808.637,3.26213
5810.566,3.265356
5812.494,3.27087
5814.423,3.276288
5816.352,3.279107
5818.28,3.280729
5820.208,3.282849
5822.137,3.285256
5824.065,3.288505
5825.994,3.285546
5827.922,3.286518
5829.851,3.287032
5831.779,3.286094
5833.708,3.284831
5835.636,3.283046
5837.565,3.279928
5839.493,3.27438
5841.422,3.270581
5843.35,3.271244
5845.279,3.270144
5847.207,3.265757
5849.136,3.264777
5851.064,3.267741
5852.993,3.265373
5854.921,3.259577
5856.85,3.258177
5858.778,3.256786
5860.707,3.259565
5862.635,3.263289
5864.563,3.266718
5866.492,3.268582
5868.421,3.271172
5870.349,3.277193
5872.278,3.28465
5874.206,3.29273
5876.135,3.303463
5878.063,3.311329
5879.992,3.316478
5881.92,3.32282
5883.849,3.327162
5885.777,3.330315
5887.706,3.332988
5889.634,3.332653
5891.563,3.333349
5893.491,3.329482
5895.42,3.330551
5897.348,3.333099
5899.277,3.332463
5901.205,3.332184
5903.134,3.328612
5905.063,3.326048
5906.991,3.32486
5908.919,3.326609
5910.848,3.335584
5912.776,3.348481
5914.705,3.373771
5916.633,3.403771
5918.562,3.445902
5920.49,3.498715
5922.419,3.564586
5924.347,3.638741
5926.276,3.722777
5928.204,3.814021
5930.133,3.905591
5932.061,4.002952
5933.99,4.09437
5935.918,4.1887
5937.847,4.283478
5939.775,4.377468
5941.704,4.468047
5943.632,4.554261
5945.561,4.636158
5947.489,4.716259
5949.418,4.789114
5951.346,4.860523
5953.274,4.927392
5955.203,4.989627
5957.132,5.045813
5959.06,5.102295
5960.989,5.153776
5962.917,5.20648
5964.846,5.257237
5966.774,5.303603
5968.703,5.344597
5970.631,5.385889
5972.56,5.424052
5974.488,5.460869
5976.417,5.495699
5978.345,5.531489
5980.273,5.563199
5982.202,5.591645
5984.131,5.617218
5986.059,5.641034
5987.988,5.664041
5989.916,5.687903
5991.845,5.706229
5993.773,5.72526
5995.702,5.743466
5997.63,5.756237
5999.559,5.768613
6001.487,5.780919
6003.416,5.79419
6005.344,5.808392
6007.272,5.823624
6009.201,5.836595
6011.13,5.849683
6013.058,5.860353
6014.986,5.870831
6016.915,5.885756
6018.844,5.898526
6020.772,5.905335
6022.701,5.915302
6024.629,5.930426
6026.558,5.93527
6028.486,5.940702
6030.415,5.950079
6032.343,5.960453
6034.271,5.965712
6036.2,5.969081
6038.129,5.975077
6040.057,5.978863
6041.985,5.979962
6043.914,5.983441
6045.843,5.981932
6047.771,5.979699
6049.7,5.982274
6051.628,5.991808
6053.557,5.988512
6055.485,5.986055
6057.414,5.986677
6059.342,5.985652
6061.271,5.984323
6063.199,5.985464
6065.128,5.986896
6067.056,5.986232
6068.984,5.986031
6070.913,5.987146
6072.842,5.981852
6074.77,5.983043
6076.698,5.980334
6078.627,5.976649
6080.556,5.980012
6082.484,5.98421
6084.413,5.983255
6086.341,5.983049
6088.27,5.983995
6090.198,5.987449
6092.126,5.988592
6094.055,5.985986
6095.983,5.986287
6097.912,5.988965
6099.841,5.993588
6101.769,5.997859
6103.697,6.002717
6105.626,6.012168
6107.555,6.022201
6109.483,6.029284
6111.412,6.034564
6113.34,6.042914
6115.269,6.053847
6117.197,6.06493
6119.125,6.072722
6121.054,6.084533
6122.982,6.096648
6124.911,6.111146
6126.84,6.127162
6128.768,6.141337
6130.696,6.154051
6132.625,6.167198
6134.554,6.181895
6136.482,6.202445
6138.41,6.223873
6140.339,6.247309
6142.268,6.271218
6144.196,6.295288
6146.125,6.317173
6148.053,6.341256
6149.981,6.368934
6151.91,6.39782
6153.839,6.425776
6155.767,6.457526
6157.695,6.490151
6159.624,6.523198
6161.553,6.560405
6163.481,6.600023
6165.409,6.632385
6167.338,6.666458
6169.267,6.704193
6171.195,6.741746
6173.124,6.771811
6175.052,6.802136
6176.98,6.835616
6178.909,6.869181
6180.837,6.898131
6182.766,6.92836
6184.694,6.956055
6186.623,6.980199
6188.552,7.003863
6190.48,7.028259
6192.408,7.047155
6194.337,7.064088
6196.266,7.084455
6198.194,7.10467
6200.123,7.118241
6202.051,7.133032
6203.979,7.138245
6205.908,7.14755
6207.836,7.157781
6209.765,7.168008
6211.693,7.174448
6213.622,7.183872
6215.551,7.192642
6217.479,7.199381
6219.407,7.208113
6221.336,7.222095
6223.265,7.236091
6225.193,7.243934
6227.121,7.251261
6229.05,7.260066
6230.979,7.269353
6232.907,7.282225
6234.835,7.291002
6236.764,7.299448
6238.692,7.308255
6240.621,7.316666
6242.549,7.32502
6244.478,7.338876
6246.406,7.351464
6248.335,7.365826
6250.264,7.376765
6252.192,7.388247
6254.12,7.403659
6256.049,7.416782
6257.978,7.429867
6259.906,7.444575
6261.834,7.459271
6263.763,7.473807
6265.691,7.488165
6267.62,7.50224
6269.548,7.513719
6271.477,7.525683
6273.405,7.537825
6275.334,7.551302
6277.263,7.560252
6279.191,7.5727
6281.119,7.581926
6283.048,7.586757
6284.977,7.592081
6286.905,7.603825
6288.833,7.613865
6290.762,7.622229
6292.69,7.626504
6294.619,7.631937
6296.547,7.637197
6298.476,7.644992
6300.404,7.652815
6302.333,7.662691
6304.262,7.668222
6306.19,7.675756
6308.118,7.684368
6310.047,7.694506
6311.976,7.706369
6313.904,7.7178
6315.832,7.726015
6317.761,7.739044
6319.689,7.748678
6321.618,7.758048
6323.546,7.77188
6325.475,7.784307
6327.403,7.788996
6329.332,7.802598
6331.26,7.819077
6333.189,7.826208
6335.117,7.833868
6337.046,7.848724
6338.975,7.8603
6340.903,7.872376
6342.831,7.875345
6344.76,7.882036
6346.688,7.893577
6348.617,7.904951
6350.545,7.909724
6352.474,7.915094
6354.402,7.920201
6356.331,7.929986
6358.259,7.934062
6360.188,7.937614
6362.116,7.94123
6364.045,7.944915
6365.974,7.948776
6367.902,7.954929
6369.83,7.961623
6371.759,7.96912
6373.688,7.981077
6375.616,7.990014
6377.544,7.993788
6379.473,8.00174
6381.401,8.008235
6383.33,8.014977
6385.258,8.021475
6387.187,8.025856
6389.115,8.030586
6391.044,8.037531
6392.973,8.045385
6394.901,8.05214
6396.829,8.058672
6398.758,8.062468
6400.687,8.062705
6402.615,8.068928
6404.543,8.071086
6406.472,8.076849
6408.4,8.077583
6410.329,8.07498
6412.257,8.082963
6414.186,8.090559
6416.114,8.089563
6418.043,8.08783
6419.971,8.084438
6421.9,8.086295
6423.828,8.087984
6425.757,8.088333
6427.686,8.084354
6429.614,8.079197
6431.542,8.08181
6433.471,8.086679
6435.399,8.087639
6437.328,8.088161
6439.256,8.085049
6441.185,8.084415
6443.113,8.086638
6445.042,8.091695
6446.97,8.091073
6448.898,8.086703
6450.827,8.088688
6452.756,8.09202
6454.685,8.091229
6456.613,8.086744
6458.541,8.080891
6460.47,8.08009
6462.398,8.078094
6464.327,8.074304
6466.255,8.071472
6468.184,8.068084
6470.112,8.068301
6472.041,8.069051
6473.969,8.064497
6475.897,8.062262
6477.826,8.058771
6479.755,8.055913
6481.684,8.053609
6483.612,8.052456
6485.54,8.051464
6487.469,8.048764
6489.397,8.04477
6491.326,8.045785
6493.254,8.041161
6495.183,8.03684
6497.111,8.029092
6499.04,8.021707
6500.968,8.015852
6502.896,8.00673
6504.825,7.997528
6506.754,7.987568
6508.682,7.9786
6510.61,7.973036
6512.539,7.964142
6514.468,7.955705
6516.396,7.942172
6518.325,7.928175
6520.253,7.916536
6522.182,7.909794
6524.11,7.897248
6526.039,7.887485
6527.967,7.874791
6529.896,7.864281
6531.824,7.852802
6533.753,7.836478
6535.681,7.821833
6537.609,7.806863
6539.538,7.792982
6541.467,7.777911
6543.396,7.760279
6545.324,7.748552
6547.252,7.736005
6549.181,7.721151
6551.109,7.704855
6553.038,7.688984
6554.966,7.671887
6556.895,7.65954
6558.823,7.64487
6560.752,7.622234
6562.68,7.597112
6564.608,7.575441
6566.537,7.552556
6568.466,7.529021
6570.394,7.50769
6572.323,7.485552
6574.251,7.465127
6576.18,7.445941
6578.108,7.426286
6580.037,7.412093
6581.965,7.390491
6583.894,7.373397
6585.822,7.36081
6587.751,7.349171
6589.679,7.334284
6591.607,7.318979
6593.536,7.30714
6595.465,7.296824
6597.393,7.285276
6599.321,7.273844
6601.25,7.263616
6603.179,7.254422
6605.107,7.245027
6607.036,7.229464
6608.964,7.217076
6610.893,7.209576
6612.821,7.190564
6614.75,7.17557
6616.678,7.164647
6618.606,7.15412
6620.535,7.144765
6622.464,7.129637
6624.392,7.110001
6626.32,7.09998
6628.249,7.087627
6630.178,7.066796
6632.106,7.050463
6634.035,7.032847
6635.963,7.017467
6637.892,6.998608
6639.82,6.978553
6641.749,6.95853
6643.677,6.93073
6645.605,6.910938
6647.534,6.900649
6649.463,6.879686
6651.391,6.854027
6653.319,6.832287
6655.248,6.809854
6657.177,6.789499
6659.105,6.769461
6661.034,6.745042
6662.962,6.720109
6664.891,6.695438
6666.819,6.666354
6668.748,6.651377
6670.676,6.636885
6672.604,6.614376
6674.533,6.590752
6676.462,6.568721
6678.39,6.542934
6680.318,6.522427
6682.247,6.507317
6684.176,6.487955
6686.104,6.465387
6688.032,6.449398
6689.961,6.435233
6691.89,6.420896
6693.818,6.40948
6695.747,6.396793
6697.675,6.385763
6699.604,6.37304
6701.532,6.362698
6703.46,6.355026
6705.389,6.347279
6707.317,6.343943
6709.246,6.340861
6711.175,6.336464
6713.103,6.332218
6715.031,6.326659
6716.96,6.321816
6718.889,6.321498
6720.817,6.323935
6722.746,6.324319
6724.674,6.321059
6726.603,6.318048
6728.531,6.311936
6730.459,6.309109
6732.388,6.31085
6734.316,6.309316
6736.245,6.304933
6738.174,6.299652
6740.102,6.297521
6742.03,6.294977
6743.959,6.286752
6745.888,6.279286
6747.816,6.276011
6749.745,6.274782
6751.673,6.27216
6753.602,6.267757
6755.53,6.260793
6757.458,6.256028
6759.387,6.256114
6761.315,6.258983
6763.244,6.261636
6765.173,6.260345
6767.101,6.255861
6769.029,6.252571
6770.958,6.244836
6772.887,6.232908
6774.815,6.226578
6776.743,6.219072
6778.672,6.208942
6780.601,6.196759
6782.529,6.18558
6784.458,6.177895
6786.386,6.169451
6788.314,6.155482
6790.243,6.140546
6792.171,6.124836
6794.1,6.112734
6796.028,6.101366
6797.957,6.085181
6799.886,6.065979
6801.814,6.051381
6803.742,6.039037
6805.671,6.023563
6807.6,6.010375
6809.528,5.994372
6811.457,5.981775
6813.385,5.967201
6815.313,5.953294
6817.242,5.94217
6819.17,5.929001
6821.099,5.922947
6823.027,5.920566
6824.956,5.915715
6826.885,5.909274
6828.813,5.901916
6830.741,5.889936
6832.67,5.881325
6834.599,5.873502
6836.527,5.864626
6838.455,5.854543
6840.384,5.842107
6842.313,5.831503
6844.241,5.815459
6846.169,5.80102
6848.098,5.795544
6850.026,5.783488
6851.955,5.770349
6853.884,5.762538
6855.812,5.749853
6857.74,5.734534
6859.669,5.727262
6861.598,5.717846
6863.526,5.70961
6865.454,5.702901
6867.383,5.694621
6869.312,5.679696
6871.24,5.66863
6873.168,5.665381
6875.097,5.661176
6877.025,5.651565
6878.954,5.642551
6880.882,5.638082
6882.811,5.626575
6884.739,5.611847
6886.668,5.59693
6888.597,5.581834
6890.525,5.569369
6892.453,5.551548
6894.382,5.52827
6896.311,5.509325
6898.239,5.490906
6900.167,5.471693
6902.096,5.460122
6904.024,5.445172
6905.953,5.433598
6907.881,5.425613
6909.81,5.416743
6911.738,5.409268
6913.667,5.39885
6915.596,5.388681
6917.524,5.383835
6919.452,5.376635
6921.381,5.368227
6923.31,5.359219
6925.238,5.351817
6927.166,5.345056
6929.095,5.33441
6931.023,5.321504
6932.952,5.303728
6934.88,5.290495
6936.809,5.279665
6938.737,5.266505
6940.666,5.251543
6942.594,5.234397
6944.523,5.225568
6946.451,5.218832
6948.38,5.2059
6950.309,5.198932
6952.237,5.201556
6954.165,5.206241
6956.094,5.198988
6958.022,5.200788
6959.951,5.200232
6961.879,5.192544
6963.808,5.184376
6965.736,5.174035
6967.665,5.163337
6969.593,5.154872
6971.521,5.148024
6973.45,5.137574
6975.379,5.120944
6977.308,5.110117
6979.236,5.104766
6981.164,5.104575
6983.093,5.09647
6985.021,5.088563
6986.95,5.086573
6988.878,5.082867
6990.807,5.078083
6992.735,5.077847
6994.664,5.073935
6996.592,5.067888
6998.521,5.065518
7000.449,5.068711
7002.378,5.070113
7004.307,5.067107
7006.235,5.069085
7008.163,5.072004
7010.092,5.074835
7012.021,5.08241
7013.949,5.087794
7015.877,5.087081
7017.806,5.088717
7019.734,5.091295
7021.663,5.09132
7023.591,5.084654
7025.52,5.073823
7027.448,5.059853
7029.377,5.052977
7031.305,5.043943
7033.234,5.024005
7035.162,5.003855
7037.091,4.980723
7039.02,4.96223
7040.948,4.946106
7042.876,4.933588
7044.805,4.915973
7046.733,4.889645
7048.662,4.862906
7050.59,4.841868
7052.519,4.824175
7054.447,4.80565
7056.376,4.788759
7058.304,4.775158
7060.232,4.763483
7062.161,4.753398
7064.09,4.742553
7066.019,4.73979
7067.947,4.733557
7069.875,4.732101
7071.804,4.730206
7073.732,4.72308
7075.661,4.712521
7077.589,4.707654
7079.518,4.717702
7081.446,4.725937
7083.375,4.730742
7085.303,4.744194
7087.231,4.75875
7089.16,4.775172
7091.089,4.793422
7093.018,4.814069
7094.946,4.83631
7096.874,4.85015
7098.803,4.860646
7100.731,4.866841
7102.66,4.878082
7104.588,4.891807
7106.517,4.888913
7108.445,4.881876
7110.374,4.874211
7112.302,4.861433
7114.23,4.847849
7116.159,4.837177
7118.088,4.818285
7120.016,4.785161
7121.944,4.759992
7123.873,4.73192
7125.802,4.706278
7127.73,4.677046
7129.659,4.651687
7131.587,4.62732
7133.516,4.605251
7135.444,4.584928
7137.373,4.557137
7139.301,4.531548
7141.229,4.507065
7143.158,4.484001
7145.087,4.457026
7147.015,4.431201
7148.943,4.401041
7150.872,4.375278
7152.801,4.354317
7154.729,4.336116
7156.658,4.322879
7158.586,4.314248
7160.515,4.314565
7162.443,4.316329
7164.372,4.319918
7166.3,4.330183
7168.229,4.351349
7170.157,4.369516
7172.086,4.387514
7174.014,4.409811
7175.942,4.435031
7177.871,4.460014
7179.8,4.486722
7181.729,4.517001
7183.657,4.535829
7185.585,4.557127
7187.514,4.576376
7189.442,4.598936
7191.371,4.617262
7193.299,4.628887
7195.228,4.639606
7197.156,4.651787
7199.085,4.65878
7201.013,4.660406
7202.941,4.66628
7204.87,4.67119
7206.799,4.665413
7208.727,4.663558
7210.655,4.663915
7212.584,4.666094
7214.513,4.665195
7216.441,4.659565
7218.37,4.658319
7220.298,4.664378
7222.227,4.660009
7224.155,4.664416
7226.083,4.678809
7228.012,4.685314
7229.94,4.713118
7231.869,4.757641
7233.798,4.783673
7235.726,4.812342
7237.654,4.848388
7239.583,4.878587
7241.512,4.914392
7243.44,4.952805
7245.369,4.966352
7247.297,4.984849
7249.226,4.999587
7251.154,5.016773
7253.083,5.037499
7255.011,5.049546
7256.939,5.059817
7258.868,5.074754
7260.797,5.092377
7262.725,5.10831
7264.653,5.118727
7266.582,5.140571
7268.511,5.158713
7270.439,5.173079
7272.368,5.199344
7274.296,5.227899
7276.225,5.252356
7278.153,5.278261
7280.082,5.302951
7282.01,5.326639
7283.938,5.347454
7285.867,5.37704
7287.796,5.406001
7289.724,5.424427
7291.652,5.441528
7293.581,5.468821
7295.51,5.492882
7297.438,5.513958
7299.366,5.544435
7301.295,5.56577
7303.224,5.584469
7305.152,5.615012
7307.081,5.654603
7309.009,5.678949
7310.938,5.708666
7312.866,5.726182
7314.794,5.746116
7316.723,5.765834
7318.651,5.77856
7320.58,5.797163
7322.509,5.823097
7324.437,5.837714
7326.365,5.862821
7328.294,5.887603
7330.223,5.895211
7332.151,5.903265
7334.08,5.913492
7336.008,5.927689
7337.937,5.937139
7339.865,5.951265
7341.793,5.959185
7343.722,5.973204
7345.65,5.988362
7347.579,6.018373
7349.508,6.05259
7351.436,6.090464
7353.364,6.131386
7355.293,6.193435
7357.222,6.264603
7359.15,6.338115
7361.079,6.428397
7363.007,6.532609
7364.936,6.639474
7366.864,6.753797
7368.792,6.871398
7370.721,6.975692
7372.649,7.078657
7374.578,7.199246
7376.507,7.302984
7378.435,7.403297
7380.363,7.512621
7382.292,7.61737
7384.221,7.703666
7386.149,7.785071
7388.077,7.864605
7390.006,7.947635
7391.935,8.011708
7393.863,8.076309
7395.792,8.1361
7397.72,8.19764
7399.648,8.252687
7401.577,8.299767
7403.505,8.349318
7405.434,8.395098
7407.362,8.4269
7409.291,8.468565
7411.22,8.500461
7413.148,8.530622
7415.076,8.559103
7417.005,8.591684
7418.934,8.615903
7420.862,8.643097
7422.791,8.669356
7424.719,8.692636
7426.647,8.714415
7428.576,8.731308
7430.504,8.749494
7432.433,8.764903
7434.361,8.772017
7436.29,8.78869
7438.219,8.803732
7440.147,8.814454
7442.075,8.823797
7444.004,8.833274
7445.933,8.846733
7447.861,8.857118
7449.789,8.86441
7451.718,8.871153
7453.646,8.879152
7455.575,8.891481
7457.503,8.897419
7459.432,8.903758
7461.36,8.90849
7463.289,8.913504
7465.218,8.914879
7467.146,8.919216
7469.074,8.928903
7471.003,8.933537
7472.932,8.935225
7474.86,8.935001
7476.788,8.941396
7478.717,8.947737
7480.646,8.95249
7482.574,8.96594
7484.502,8.969756
7486.431,8.97501
7488.359,8.968878
7490.288,8.968849
7492.216,8.98048
7494.145,8.984747
7496.073,8.980643
7498.002,8.975405
7499.931,8.977407
7501.859,8.985353
7503.787,8.98877
7505.716,8.991149
7507.645,8.988408
7509.573,8.99458
7511.501,8.998733
7513.43,9.004778
7515.358,9.009702
7517.287,9.013392
7519.215,9.011488
7521.144,9.014848
7523.072,9.016629
7525.001,9.020175
7526.93,9.020105
7528.858,9.026782
7530.786,9.032444
7532.715,9.030466
7534.644,9.03078
7536.572,9.037068
7538.5,9.040378
7540.429,9.034345
7542.357,9.03618
7544.286,9.039708
7546.214,9.035821
7548.143,9.035644
7550.071,9.037364
7552.0,9.03721
7553.928,9.045639
7555.857,9.04766
7557.785,9.03886
7559.714,9.038191
7561.643,9.046052
7563.571,9.047858
7565.499,9.047827
7567.428,9.047966
7569.356,9.045278
7571.285,9.043705
7573.213,9.042332
7575.142,9.039461
7577.07,9.037212
7578.999,9.043708
7580.927,9.042258
7582.855,9.035791
7584.784,9.035128
7586.713,9.039518
7588.642,9.038252
7590.57,9.038468
7592.498,9.035662
7594.427,9.028752
7596.355,9.02709
7598.284,9.024695
7600.212,9.02327
7602.141,9.028049
7604.069,9.030115
7605.998,9.02643
7607.926,9.027729
7609.854,9.02514
7611.783,9.022906
7613.712,9.020889
7615.641,9.019707
7617.569,9.021684
7619.497,9.021538
7621.426,9.014845
7623.354,9.015836
7625.283,9.016806
7627.211,9.008615
7629.14,9.004173
7631.068,9.005656
7632.997,9.006454
7634.925,9.007547
7636.854,9.004786
7638.782,9.002007
7640.711,8.996627
7642.639,8.990998
7644.568,8.993103
7646.496,8.999123
7648.425,9.001647
7650.354,9.000702
7652.282,8.993291
7654.21,8.985974
7656.139,8.986818
7658.067,8.987683
7659.996,8.986131
7661.924,8.981803
7663.853,8.975261
7665.781,8.969032
7667.71,8.970763
7669.638,8.968648
7671.566,8.959805
7673.495,8.958311
7675.424,8.953957
7677.353,8.951054
7679.281,8.953363
7681.209,8.953791
7683.138,8.945512
7685.066,8.941226
7686.995,8.941141
7688.923,8.937767
7690.852,8.930996
7692.78,8.927671
7694.709,8.926325
7696.637,8.929436
7698.565,8.924456
7700.494,8.916964
7702.423,8.907655
7704.352,8.902571
7706.28,8.901921
7708.208,8.901203
7710.137,8.895228
7712.065,8.88444
7713.994,8.883229
7715.922,8.881008
7717.851,8.876422
7719.779,8.877575
7721.708,8.876197
7723.636,8.870121
7725.564,8.867208
7727.493,8.857401
7729.422,8.844269
7731.35,8.839911
7733.279,8.845494
7735.207,8.84208
7737.136,8.832504
7739.064,8.822143
7740.993,8.824787
7742.921,8.825007
7744.85,8.82413
7746.778,8.823316
7748.707,8.817622
7750.635,8.804936
7752.563,8.795526
7754.492,8.795179
7756.421,8.803928
7758.349,8.798962
7760.277,8.783798
7762.206,8.774242
7764.135,8.773479
7766.063,8.769673
7767.992,8.764427
7769.92,8.763846
7771.849,8.765297
7773.777,8.757071
7775.706,8.746262
7777.634,8.741146
7779.563,8.737406
7781.491,8.737415
7783.42,8.733488
7785.348,8.719429
7787.276,8.707801
7789.205,8.704201
7791.134,8.70006
7793.063,8.697906
7794.991,8.69532
7796.919,8.687459
7798.848,8.674441
7800.776,8.672504
7802.705,8.667892
7804.633,8.658739
7806.562,8.652437
7808.49,8.651793
7810.419,8.647613
7812.347,8.636555
7814.275,8.631254
7816.204,8.625398
7818.133,8.617208
7820.061,8.605537
7821.989,8.598394
7823.918,8.592008
7825.847,8.579781
7827.775,8.563725
7829.704,8.559577
7831.632,8.549197
7833.561,8.543689
7835.489,8.533211
7837.417,8.525808
7839.346,8.517229
7841.274,8.510604
7843.203,8.495011
7845.132,8.48206
7847.06,8.477615
7848.988,8.471981
7850.917,8.460886
7852.846,8.44409
7854.774,8.434237
7856.703,8.419534
7858.631,8.412533
7860.56,8.409035
7862.488,8.396173
7864.417,8.377004
7866.345,8.367874
7868.273,8.358383
7870.202,8.344327
7872.131,8.337403
7874.059,8.331876
7875.987,8.316757
7877.916,8.31785
7879.845,8.312058
7881.773,8.289189
7883.702,8.268965
7885.63,8.263416
7887.559,8.254836
7889.487,8.246309
7891.416,8.234102
7893.344,8.218303
7895.272,8.20145
7897.201,8.190921
7899.13,8.206396
7901.058,8.183696
7902.986,8.153893
7904.915,8.12862
7906.844,8.115995
7908.772,8.106321
7910.7,8.091892
7912.629,8.078703
7914.558,8.065341
7916.486,8.0439
7918.415,8.021159
7920.343,8.016979
7922.271,8.006764
7924.2,7.989839
7926.128,7.972638
7928.057,7.949089
7929.985,7.925811
7931.914,7.908848
7933.843,7.897813
7935.771,7.8815
7937.699,7.859499
7939.628,7.843704
7941.557,7.831026
7943.485,7.805752
7945.414,7.783817
7947.342,7.764191
7949.271,7.748342
7951.199,7.73839
7953.127,7.723943
7955.056,7.709115
7956.984,7.689726
7958.913,7.676989
7960.842,7.657887
7962.77,7.632093
7964.698,7.623866
7966.627,7.616562
7968.556,7.601371
7970.484,7.577398
7972.413,7.561668
7974.341,7.548384
7976.27,7.532198
7978.198,7.509947
7980.126,7.497329
7982.055,7.48276
7983.983,7.465214
7985.912,7.442102
7987.841,7.417336
7989.769,7.395986
7991.697,7.379127
7993.626,7.367208
7995.555,7.352496
7997.483,7.330924
7999.411,7.309901
8001.34,7.281974
8003.269,7.260497
8005.197,7.245305
8007.125,7.238333
8009.054,7.212932
8010.982,7.184138
8012.911,7.170042
8014.839,7.150681
8016.768,7.127269
8018.696,7.096516
8020.625,7.075608
8022.554,7.054035
8024.482,7.035676
8026.41,7.021673
8028.339,6.998712
8030.268,6.975246
8032.196,6.947046
8034.125,6.92208
8036.053,6.899714
8037.981,6.883107
8039.91,6.862782
8041.838,6.842731
8043.767,6.82558
8045.695,6.794848
8047.624,6.768508
8049.553,6.741218
8051.481,6.725964
8053.409,6.70488
8055.338,6.672421
8057.267,6.642601
8059.195,6.617085
8061.124,6.596845
8063.052,6.571688
8064.98,6.547173
8066.909,6.531946
8068.837,6.505354
8070.766,6.475989
8072.694,6.441035
8074.623,6.41868
8076.552,6.398241
8078.48,6.368616
8080.408,6.338315
8082.337,6.315361
8084.266,6.286751
8086.194,6.258264
8088.122,6.233077
8090.051,6.198531
8091.979,6.165986
8093.908,6.151647
8095.836,6.125746
8097.765,6.087903
8099.693,6.059584
8101.622,6.037524
8103.551,6.007545
8105.479,5.969554
8107.407,5.939808
8109.336,5.911986
8111.265,5.882838
8113.192,5.859954
8115.121,5.835433
8117.05,5.798697
8118.979,5.765609
8120.907,5.738664
8122.835,5.710477
8124.764,5.691572
8126.692,5.663208
8128.621,5.630034
8130.55,5.605547
8132.478,5.574392
8134.406,5.541266
8136.335,5.515678
8138.264,5.485251
8140.191,5.449003
8142.12,5.415733
8144.049,5.394472
8145.978,5.369758
8147.906,5.330464
8149.834,5.29662
8151.763,5.273453
8153.691,5.25212
8155.62,5.223307
8157.548,5.199243
8159.477,5.186715
8161.405,5.152979
8163.334,5.117106
8165.263,5.098186
8167.19,5.061841
8169.119,5.040313
8171.048,5.030675
8172.977,5.00622
8174.905,4.976777
8176.833,4.952226
8178.762,4.933577
8180.69,4.912359
8182.619,4.889585
8184.547,4.875774
8186.476,4.855836
8188.404,4.837986
8190.333,4.830418
8192.262,4.806685
8194.189,4.772243
8196.118,4.756532
8198.047,4.74493
8199.976,4.729107
8201.903,4.720148
8203.832,4.710906
8205.761,4.689459
8207.689,4.669104
8209.618,4.653751
8211.546,4.64294
8213.475,4.633428
8215.403,4.62423
8217.332,4.614461
8219.261,4.608387
8221.188,4.599715
8223.117,4.589744
8225.046,4.583432
8226.975,4.5737
8228.902,4.564838
8230.831,4.55233
8232.76,4.539887
8234.688,4.538276
8236.617,4.537028
8238.545,4.538369
8240.474,4.55167
8242.402,4.550069
8244.331,4.542508
8246.259,4.533446
8248.188,4.538392
8250.116,4.544291
8252.045,4.548435
8253.974,4.553837
8255.901,4.564322
8257.83,4.566545
8259.759,4.568818
8261.688,4.579134
8263.616,4.589968
8265.544,4.602654
8267.473,4.608344
8269.401,4.608919
8271.33,4.623475
8273.258,4.62857
8275.187,4.632985
8277.115,4.651236
8279.044,4.657667
8280.973,4.648015
8282.9,4.65804
8284.829,4.672648
8286.758,4.679363
8288.687,4.678468
8290.614,4.685425
8292.543,4.698429
8294.472,4.696768
8296.4,4.688574
8298.329,4.693442
8300.257,4.686694
8302.186,4.684723
8304.114,4.679238
8306.043,4.679733
8307.972,4.6738
8309.899,4.667978
8311.828,4.668208
8313.757,4.662899
8315.686,4.657309
8317.613,4.645025
8319.542,4.627833
8321.471,4.609729
8323.399,4.614448
8325.328,4.612709
8327.256,4.599329
8329.185,4.589326
8331.113,4.587004
8333.042,4.584507
8334.97,4.580414
8336.898,4.586242
8338.827,4.574442
8340.756,4.568233
8342.685,4.572461
8344.612,4.580936
8346.541,4.577656
8348.47,4.578494
8350.398,4.574181
8352.327,4.573071
8354.255,4.570313
8356.184,4.556246
8358.112,4.547373
8360.041,4.544903
8361.969,4.535768
8363.897,4.526153
8365.826,4.511781
8367.755,4.493496
8369.684,4.489295
8371.611,4.480314
8373.54,4.469115
8375.469,4.46209
8377.397,4.454705
8379.325,4.443363
8381.254,4.440675
8383.183,4.43703
8385.111,4.438309
8387.04,4.429874
8388.968,4.426754
8390.896,4.436087
8392.825,4.435254
8394.754,4.43626
8396.683,4.443927
8398.61,4.445178
8400.539,4.445851
8402.468,4.455055
8404.396,4.469833
8406.324,4.494218
8408.253,4.508276
8410.182,4.518429
8412.11,4.534342
8414.039,4.547727
8415.967,4.566405
8417.896,4.594223
8419.824,4.61835
8421.753,4.633461
8423.681,4.645651
8425.609,4.671285
8427.538,4.696538
8429.467,4.706392
8431.396,4.72976
8433.323,4.754838
8435.252,4.781132
8437.181,4.815945
8439.109,4.848168
8441.037,4.876394
8442.966,4.9009
8444.895,4.929071
8446.823,4.958552
8448.752,4.991093
8450.68,5.033696
8452.608,5.063955
8454.537,5.088018
8456.466,5.125832
8458.395,5.161922
8460.322,5.198686
8462.251,5.223038
8464.18,5.249225
8466.108,5.288271
8468.036,5.320759
8469.965,5.348567
8471.894,5.370924
8473.822,5.397917
8475.751,5.429158
8477.679,5.456563
8479.607,5.483757
8481.536,5.511597
8483.465,5.530977
8485.393,5.544697
8487.321,5.559783
8489.25,5.583236
8491.179,5.59574
8493.107,5.597955
8495.035,5.599594
8496.964,5.613531
8498.893,5.627722
8500.821,5.622332
8502.75,5.625085
8504.678,5.644113
8506.606,5.65939
8508.535,5.666216
8510.464,5.673219
8512.392,5.688076
8514.32,5.713364
8516.249,5.732522
8518.178,5.740978
8520.106,5.758227
8522.034,5.784269
8523.963,5.811076
8525.892,5.826047
8527.82,5.841274
8529.748,5.862614
8531.677,5.878059
8533.605,5.888672
8535.534,5.915869
8537.463,5.953408
8539.391,5.968831
8541.319,5.97679
8543.248,6.000848
8545.177,6.024095
8547.105,6.051155
8549.033,6.079128
8550.962,6.102448
8552.891,6.121616
8554.819,6.152427
8556.747,6.185287
8558.676,6.206575
8560.604,6.236421
8562.533,6.257404
8564.462,6.288612
8566.39,6.326686
8568.318,6.351472
8570.247,6.373266
8572.176,6.398042
8574.104,6.430212
8576.032,6.459718
8577.961,6.477906
8579.89,6.510025
8581.818,6.546871
8583.746,6.564596
8585.675,6.582451
8587.604,6.625602
8589.532,6.649909
8591.461,6.682322
8593.389,6.705825
8595.317,6.725296
8597.246,6.749331
8599.175,6.768367
8601.103,6.797443
8603.031,6.841905
8604.96,6.875428
8606.889,6.90905
8608.817,6.945859
8610.745,6.972506
8612.674,6.998581
8614.603,7.013557
8616.531,7.030918
8618.459,7.055216
8620.388,7.073098
8622.316,7.066848
8624.245,7.051579
8626.174,7.050334
8628.102,7.047806
8630.03,7.020822
8631.959,7.001498
8633.888,6.998171
8635.816,6.983135
8637.744,6.960119
8639.673,6.926998
8641.602,6.915029
8643.53,6.906377
8645.458,6.8992
8647.387,6.902769
8649.315,6.902231
8651.244,6.893162
8653.173,6.895806
8655.101,6.895753
8657.029,6.901534
8658.958,6.917437
8660.887,6.93422
8662.814,6.934724
8664.743,6.932833
8666.672,6.9374
8668.601,6.942657
8670.529,6.945647
8672.457,6.959634
8674.386,6.970742
8676.314,6.983483
8678.243,6.994774
8680.172,7.003249
8682.1,7.011271
8684.028,7.033495
8685.957,7.066206
8687.886,7.099029
8689.813,7.114667
8691.742,7.139632
8693.671,7.182912
8695.6,7.235106
8697.528,7.277927
8699.456,7.310291
8701.385,7.353412
8703.313,7.419395
8705.242,7.472154
8707.17,7.527618
8709.099,7.593016
8711.027,7.66023
8712.956,7.71923
8714.885,7.777251
8716.813,7.824458
8718.741,7.871502
8720.67,7.930628
8722.599,7.985709
8724.527,8.031338
8726.455,8.076041
8728.384,8.134503
8730.313,8.192864
8732.241,8.230684
8734.169,8.265361
8736.098,8.299548
8738.026,8.335445
8739.955,8.381282
8741.884,8.429978
8743.812,8.46759
8745.74,8.497684
8747.669,8.524767
8749.598,8.567767
8751.525,8.608313
8753.454,8.645267
8755.383,8.691133
8757.312,8.736496
8759.24,8.775862
8761.168,8.80177
8763.097,8.826664
8765.025,8.865109
8766.954,8.911026
8768.882,8.954889
8770.811,8.986172
8772.739,9.012034
8774.668,9.056021
8776.597,9.094305
8778.524,9.129509
8780.453,9.173062
8782.382,9.207252
8784.311,9.235271
8786.239,9.262248
8788.167,9.297699
8790.096,9.342318
8792.024,9.374027
8793.953,9.406477
8795.881,9.434889
8797.81,9.466314
8799.738,9.491903
8801.667,9.510298
8803.596,9.541287
8805.523,9.566572
8807.452,9.58209
8809.381,9.598372
8811.31,9.621717
8813.237,9.634083
8815.166,9.649786
8817.095,9.657611
8819.023,9.659534
8820.952,9.678331
8822.88,9.694605
8824.809,9.716703
8826.737,9.727407
8828.666,9.73392
8830.595,9.738611
8832.522,9.747899
8834.451,9.760991
8836.38,9.769896
8838.309,9.779212
8840.236,9.783826
8842.165,9.794661
8844.094,9.809244
8846.022,9.840264
8847.951,9.862575
8849.879,9.869829
8851.808,9.88654
8853.736,9.903584
8855.665,9.9123
8857.593,9.925207
8859.521,9.932448
8861.45,9.935561
8863.379,9.950647
8865.308,9.978878
8867.235,9.994621
8869.164,10.00599
8871.093,10.00423
8873.021,10.01477
8874.95,10.02128
8876.878,10.01615
8878.807,10.03144
8880.735,10.04767
8882.664,10.04594
8884.592,10.04251
8886.521,10.03341
8888.449,10.04288
8890.378,10.06265
8892.307,10.07908
8894.234,10.07941
8896.163,10.07911
8898.092,10.09448
8900.021,10.10119
8901.948,10.10569
8903.877,10.10717
8905.806,10.1119
8907.734,10.11338
8909.663,10.11147
8911.591,10.11376
8913.52,10.11421
8915.448,10.11776
8917.377,10.12336
8919.306,10.12499
8921.233,10.13958
8923.162,10.14978
8925.091,10.15084
8927.02,10.15628
8928.947,10.16677
8930.876,10.16411
8932.805,10.15657
8934.733,10.16052
8936.662,10.18076
8938.59,10.18664
8940.519,10.17988
8942.447,10.17678
8944.376,10.17372
8946.304,10.19419
8948.232,10.21236
8950.161,10.21127
8952.09,10.21858
8954.019,10.22534
8955.946,10.2169
8957.875,10.20801
8959.804,10.21412
8961.732,10.21637
8963.661,10.22852
8965.589,10.23044
8967.518,10.22926
8969.446,10.23581
8971.375,10.2347
8973.303,10.23803
8975.231,10.24259
8977.16,10.25665
8979.089,10.25895
8981.018,10.26161
8982.945,10.27108
8984.874,10.27095
8986.803,10.27572
8988.731,10.27328
8990.659,10.26258
8992.588,10.27309
8994.517,10.27388
8996.445,10.27878
8998.374,10.27344
9000.302,10.27785
9002.23,10.28753
9004.159,10.28612
9006.088,10.28457
9008.017,10.29113
9009.944,10.29507
9011.873,10.31142
9013.802,10.31082
9015.73,10.30776
9017.658,10.30847
9019.587,10.30951
9021.516,10.32038
9023.444,10.32107
9025.373,10.32094
9027.301,10.33123
9029.229,10.33536
9031.158,10.32875
9033.087,10.3291
9035.015,10.3293
9036.943,10.33699
9038.872,10.31789
9040.801,10.31221
9042.729,10.33109
9044.657,10.35015
9046.586,10.35252
9048.515,10.35221
9050.443,10.35427
9052.372,10.34908
9054.3,10.34763
9056.229,10.34815
9058.157,10.34978
9060.086,10.36217
9062.014,10.36882
9063.942,10.36097
9065.871,10.34538
9067.8,10.34286
9069.729,10.34842
9071.656,10.35738
9073.585,10.35414
9075.514,10.34348
9077.442,10.34737
9079.37,10.36274
9081.299,10.38851
9083.228,10.3872
9085.156,10.37964
9087.085,10.37553
9089.013,10.3596
9090.941,10.3542
9092.87,10.35065
9094.799,10.35876
9096.727,10.36516
9098.655,10.35585
9100.584,10.36629
9102.513,10.38009
9104.441,10.38559
9106.369,10.36952
9108.298,10.35033
9110.227,10.3468
9112.155,10.35192
9114.084,10.35794
9116.012,10.36415
9117.94,10.34777
9119.869,10.34988
9121.798,10.35931
9123.726,10.36114
9125.654,10.35272
9127.583,10.35742
9129.512,10.35769
9131.44,10.36523
9133.368,10.36434
9135.297,10.36178
9137.226,10.36185
9139.154,10.37397
9141.082,10.36667
9143.011,10.3595
9144.939,10.34988
9146.868,10.36024
9148.797,10.37255
9150.725,10.37293
9152.653,10.36909
9154.582,10.36695
9156.511,10.35281
9158.439,10.36328
9160.367,10.36051
9162.296,10.35603
9164.225,10.3524
9166.153,10.35177
9168.081,10.3521
9170.01,10.34301
9171.938,10.33016
9173.867,10.3357
9175.796,10.34714
9177.724,10.35501
9179.652,10.34741
9181.581,10.3427
9183.51,10.33812
9185.438,10.32272
9187.366,10.31468
9189.295,10.32014
9191.224,10.32045
9193.152,10.31572
9195.08,10.31524
9197.009,10.31896
9198.938,10.31339
9200.866,10.30376
9202.795,10.30935
9204.723,10.30708
9206.651,10.28571
9208.58,10.28005
9210.509,10.28217
9212.437,10.28846
9214.365,10.29053
9216.294,10.28434
9218.223,10.27264
9220.151,10.26633
9222.079,10.26874
9224.008,10.27387
9225.937,10.28361
9227.865,10.28149
9229.793,10.26689
9231.722,10.26187
9233.65,10.26795
9235.579,10.24861
9237.508,10.24127
9239.436,10.25601
9241.364,10.26589
9243.293,10.25967
9245.222,10.25747
9247.15,10.25985
9249.078,10.25493
9251.007,10.25383
9252.936,10.25864
9254.864,10.24372
9256.792,10.23314
9258.721,10.23165
9260.649,10.23129
9262.578,10.23108
9264.507,10.23457
9266.435,10.2348
9268.363,10.23479
9270.292,10.24659
9272.221,10.24118
9274.148,10.23244
9276.077,10.23105
9278.006,10.23165
9279.935,10.23081
9281.863,10.22107
9283.791,10.21099
9285.72,10.2044
9287.648,10.18415
9289.577,10.18881
9291.506,10.2075
9293.434,10.19958
9295.362,10.18124
9297.291,10.18257
9299.22,10.18083
9301.147,10.17738
9303.076,10.17579
9305.005,10.18233
9306.934,10.17197
9308.862,10.1684
9310.79,10.16575
9312.719,10.15894
9314.647,10.15754
9316.576,10.1461
9318.504,10.12966
9320.433,10.12673
9322.361,10.13813
9324.29,10.14366
9326.219,10.13337
9328.146,10.12472
9330.075,10.12576
9332.004,10.12125
9333.933,10.11932
9335.861,10.10625
9337.789,10.1123
9339.718,10.11609
9341.646,10.09744
9343.575,10.10047
9345.503,10.1183
9347.432,10.11419
9349.36,10.10331
9351.289,10.10762
9353.218,10.10242
9355.146,10.09571
9357.074,10.08271
9359.003,10.09429
9360.932,10.08876
9362.859,10.06749
9364.788,10.07365
9366.717,10.08707
9368.646,10.096
9370.574,10.08965
9372.502,10.07154
9374.431,10.07782
9376.359,10.06915
9378.288,10.06063
9380.217,10.07371
9382.145,10.09357
9384.073,10.08704
9386.002,10.08483
9387.931,10.06242
9389.858,10.05398
9391.787,10.0761
9393.716,10.09045
9395.645,10.0757
9397.573,10.07193
9399.501,10.08017
9401.43,10.08632
9403.358,10.08706
9405.287,10.08162
9407.215,10.07164
9409.144,10.06708
9411.072,10.08073
9413.001,10.09095
9414.93,10.07439
9416.857,10.06737
9418.786,10.07504
9420.715,10.07983
9422.644,10.08085
9424.571,10.07817
9426.5,10.06676
9428.429,10.07376
9430.357,10.07287
9432.286,10.06655
9434.214,10.05417
9436.143,10.0429
9438.071,10.06171
9440.0,10.07065
9441.929,10.05501
9443.856,10.04586
9445.785,10.03705
9447.714,10.04189
9449.643,10.05327
9451.57,10.04871
9453.499,10.03574
9455.428,10.03632
9457.356,10.04338
9459.285,10.03747
9461.213,10.02927
9463.142,10.03393
9465.07,10.02877
9466.999,10.02214
9468.927,10.01977
9470.855,10.02016
9472.784,10.00838
9474.713,10.00995
9476.642,10.00269
9478.569,9.994617
9480.498,10.02589
9482.427,10.0402
9484.355,10.02852
9486.284,10.01871
9488.212,9.997433
9490.141,9.994746
9492.069,9.996706
9493.998,9.980261
9495.926,9.984747
9497.854,9.989699
9499.783,9.980981
9501.712,9.996287
9503.641,10.00333
9505.568,9.996263
9507.497,9.997135
9509.426,10.00384
9511.354,9.999195
9513.282,9.989697
9515.211,9.983648
9517.14,9.98133
9519.068,9.980236
9520.997,9.977677
9522.925,9.978276
9524.854,9.982244
9526.782,9.972136
9528.711,9.963639
9530.64,9.977942
9532.567,9.997264
9534.496,9.994533
9536.425,9.987013
9538.354,9.981361
9540.281,9.971278
9542.21,9.966468
9544.139,9.955157
9546.067,9.95562
9547.996,9.96974
9549.924,9.981777
9551.853,9.981325
9553.781,9.982707
9555.71,9.969631
9557.638,9.97295
9559.566,9.968636
9561.495,9.972247
9563.424,9.97012
9565.353,9.957006
9567.28,9.969226
9569.209,9.959757
9571.138,9.953617
9573.066,9.976948
9574.995,9.995749
9576.923,9.991443
9578.852,9.984309
9580.78,9.983797
9582.709,9.960576
9584.637,9.960925
9586.565,9.987631
9588.494,10.00031
9590.423,9.995449
9592.352,9.982561
9594.279,9.984441
9596.208,9.986471
9598.137,9.98646
9600.065,10.00097
9601.993,9.993775
9603.922,9.976344
9605.851,9.988871
9607.779,10.00614
9609.708,10.00659
9611.636,9.995679
9613.564,9.98735
9615.493,9.983037
9617.422,9.999794
9619.351,9.993759
9621.278,9.973038
9623.207,9.984653
9625.136,10.00439
9627.064,9.989148
9628.992,9.9769
9630.921,9.986526
9632.85,9.984929
9634.778,9.996171
9636.707,10.00062
9638.635,9.989515
9640.563,9.970473
9642.492,9.981194
9644.421,9.984902
9646.349,9.991343
9648.277,9.979219
9650.206,9.971724
9652.135,9.973917
9654.063,9.963199
9655.991,9.974503
9657.92,9.995142
9659.849,9.983191
9661.777,9.964641
9663.706,9.965657
9665.634,9.963072
9667.563,9.975718
9669.491,9.972409
9671.42,9.96556
9673.348,9.962024
9675.276,9.968301
9677.205,9.954947
9679.134,9.947222
9681.063,9.954206
9682.99,9.978395
9684.919,9.98314
9686.848,9.970887
9688.776,9.978544
9690.704,9.974671
9692.633,9.958156
9694.562,9.961527
9696.49,9.972076
9698.419,9.967752
9700.347,9.974049
9702.275,9.950064
9704.204,9.944164
9706.133,9.951153
9708.062,9.958774
9709.989,9.964624
9711.918,9.962102
9713.847,9.960299
9715.775,9.969852
9717.703,9.96998
9719.632,9.950171
9721.561,9.947337
9723.489,9.94422
9725.418,9.923736
9727.346,9.919802
9729.274,9.945578
9731.203,9.931218
9733.132,9.913443
9735.06,9.925221
9736.988,9.927578
9738.917,9.920463
9740.846,9.910745
9742.774,9.901342
9744.702,9.915718
9746.631,9.90604
9748.56,9.903845
9750.488,9.919403
9752.416,9.9192
9754.345,9.919065
9756.273,9.925833
9758.202,9.911066
9760.131,9.89817
9762.059,9.89582
9763.987,9.906534
9765.916,9.885515
9767.845,9.862055
9769.773,9.868843
9771.701,9.872005
9773.63,9.86464
9775.559,9.862375
9777.487,9.862571
9779.415,9.863072
9781.344,9.889575
9783.272,9.888408
9785.201,9.857043
9787.13,9.866454
9789.058,9.892656
9790.986,9.903562
9792.915,9.894795
9794.844,9.889741
9796.771,9.871119
9798.7,9.866079
9800.629,9.868834
9802.558,9.856994
9804.486,9.860606
9806.414,9.870251
9808.343,9.864972
9810.271,9.886689
9812.2,9.867361
9814.129,9.849243
9816.057,9.860353
9817.985,9.863742
9819.914,9.849252
9821.843,9.861332
9823.771,9.869635
9825.699,9.875739
9827.628,9.872604
9829.557,9.86846
9831.485,9.888453
9833.413,9.907547
9835.342,9.916986
9837.271,9.920632
9839.199,9.914454
9841.127,9.908751
9843.056,9.923785
9844.984,9.948977
9846.913,9.949361
9848.842,9.942936
9850.77,9.971542
9852.698,9.982894
9854.627,9.965886
9856.556,9.977169
9858.484,9.996664
9860.412,10.00259
9862.341,10.0121
9864.27,10.04015
9866.198,10.04202
9868.126,10.02172
9870.055,10.043
9871.983,10.04445
9873.912,10.02021
9875.841,10.04908
9877.769,10.08429
9879.697,10.07537
9881.626,10.09591
9883.555,10.10869
9885.482,10.11149
9887.411,10.12787
9889.34,10.14163
9891.269,10.15746
9893.197,10.17299
9895.125,10.16658
9897.054,10.15557
9898.982,10.15326
9900.911,10.15079
9902.84,10.16749
9904.768,10.18206
9906.696,10.20508
9908.625,10.19407
9910.554,10.198
9912.481,10.20718
9914.41,10.21686
9916.339,10.24098
9918.268,10.24655
9920.196,10.22876
9922.124,10.23901
9924.053,10.24827
9925.981,10.24773
9927.91,10.27376
9929.838,10.26437
9931.767,10.25258
9933.695,10.26163
9935.624,10.27534
9937.553,10.2874
9939.48,10.30676
9941.409,10.30042
9943.338,10.30512
9945.267,10.32487
9947.195,10.32638
9949.123,10.32235
9951.052,10.31919
9952.98,10.34098
9954.909,10.33973
9956.837,10.36501
9958.766,10.37691
9960.694,10.34238
9962.623,10.34361
9964.552,10.35582
9966.479,10.37556
9968.408,10.37807
9970.337,10.39077
9972.266,10.40372
9974.193,10.38839
9976.122,10.37824
9978.051,10.36362
9979.979,10.37967
9981.908,10.3895
9983.836,10.41377
9985.765,10.42103
9987.693,10.40355
9989.622,10.40603
9991.551,10.43827
9993.479,10.45336
9995.407,10.43983
9997.336,10.43344
9999.265,10.43482
10001.19,10.42583
10003.12,10.42946
10005.05,10.43225
10006.98,10.43362
10008.91,10.45727
10010.83,10.45668
10012.76,10.45481
10014.69,10.47442
10016.62,10.4787
10018.55,10.46567
10020.48,10.45738
10022.41,10.46344
10024.33,10.48991
10026.26,10.49688
10028.19,10.48987
10030.12,10.5019
10032.05,10.51649
10033.98,10.52734
10035.91,10.5403
10037.83,10.54075
10039.76,10.53561
10041.69,10.56407
10043.62,10.59791
10045.55,10.59919
10047.48,10.58915
10049.41,10.60797
10051.33,10.62007
10053.26,10.62494
10055.19,10.62403
10057.12,10.61823
10059.05,10.63469
10060.98,10.64136
10062.9,10.63255
10064.83,10.61027
10066.76,10.63364
10068.69,10.65276
10070.62,10.65165
10072.55,10.66739
10074.48,10.67807
10076.4,10.6688
10078.33,10.66826
10080.26,10.68155
10082.19,10.69357
10084.12,10.69368
10086.05,10.71357
10087.98,10.72525
10089.9,10.71495
10091.83,10.70484
10093.76,10.7266
10095.69,10.71423
10097.62,10.70312
10099.55,10.73869
10101.47,10.76771
10103.4,10.73315
10105.33,10.71229
10107.26,10.72948
10109.19,10.73719
10111.12,10.74345
10113.05,10.73969
10114.97,10.72305
10116.9,10.74452
10118.83,10.73642
10120.76,10.74621
10122.69,10.79186
10124.62,10.78778
10126.54,10.79157
10128.47,10.78944
10130.4,10.80034
10132.33,10.77599
10134.26,10.78055
10136.19,10.78723
10138.12,10.82219
10140.04,10.84396
10141.97,10.82309
10143.9,10.83491
10145.83,10.83914
10147.76,10.82668
10149.69,10.8304
10151.62,10.82732
10153.54,10.83406
10155.47,10.83105
10157.4,10.85535
10159.33,10.85585
10161.26,10.84696
10163.19,10.86594
10165.12,10.88897
10167.04,10.86572
10168.97,10.84845
10170.9,10.84021
10172.83,10.84533
10174.76,10.85753
10176.69,10.85578
10178.61,10.83282
10180.54,10.8383
10182.47,10.89444
10184.4,10.89178
10186.33,10.87866
10188.26,10.88476
10190.19,10.89171
10192.11,10.87966
10194.04,10.90607
10195.97,10.88177
10197.9,10.87275
10199.83,10.86428
10201.76,10.86207
10203.69,10.86807
10205.61,10.87287
10207.54,10.87632
10209.47,10.88641
10211.4,10.92379
10213.33,10.90439
10215.26,10.89184
10217.18,10.91967
10219.11,10.90715
10221.04,10.9338
10222.97,10.93625
10224.9,10.93559
10226.83,10.92322
10228.76,10.90116
10230.68,10.89487
10232.61,10.91013
10234.54,10.90513
10236.47,10.91683
10238.4,10.90833
10240.33,10.90609
10242.25,10.90432
10244.18,10.9029
10246.11,10.92263
10248.04,10.92017
10249.97,10.92355
10251.9,10.92511
10253.83,10.92231
10255.75,10.91153
10257.68,10.91117
10259.61,10.92655
10261.54,10.96412
10263.47,10.97
10265.4,10.93416
10267.33,10.92906
10269.25,10.93891
10271.18,10.92989
10273.11,10.92568
10275.04,10.94436
10276.97,10.94671
10278.9,10.95459
10280.83,10.9616
10282.75,10.93438
10284.68,10.93142
10286.61,10.94685
10288.54,10.94039
10290.47,10.94749
10292.4,10.94653
10294.32,10.93045
10296.25,10.93619
10298.18,10.93943
10300.11,10.9426
10302.04,10.93073
10303.97,10.93852
10305.9,10.96402
10307.82,10.97087
10309.75,10.92675
10311.68,10.92251
10313.61,10.93568
10315.54,10.93376
10317.47,10.91591
10319.4,10.88975
10321.32,10.90464
10323.25,10.96306
10325.18,10.95663
10327.11,10.90717
10329.04,10.929
10330.97,10.96628
10332.89,10.96381
10334.82,10.95242
10336.75,10.92857
10338.68,10.91405
10340.61,10.90413
10342.54,10.90002
10344.47,10.90552
10346.39,10.92406
10348.32,10.94864
10350.25,10.94376
10352.18,10.93494
10354.11,10.9095
10356.04,10.9257
10357.96,10.9544
10359.89,10.93008
10361.82,10.91454
10363.75,10.93047
10365.68,10.92602
10367.61,10.94157
10369.54,10.91394
10371.46,10.92442
10373.39,10.9253
10375.32,10.89941
10377.25,10.88687
10379.18,10.88334
10381.11,10.91359
10383.04,10.95597
10384.96,10.93254
10386.89,10.91996
10388.82,10.92142
10390.75,10.90011
10392.68,10.86922
10394.61,10.89135
10396.54,10.91277
10398.46,10.88034
10400.39,10.85824
10402.32,10.90022
10404.25,10.90863
10406.18,10.90643
10408.11,10.89305
10410.03,10.86266
10411.96,10.8507
10413.89,10.87319
10415.82,10.852
10417.75,10.84122
10419.68,10.87975
10421.61,10.90354
10423.53,10.90098
10425.46,10.89078
10427.39,10.85833
10429.32,10.81694
10431.25,10.82306
10433.18,10.82569
10435.1,10.85471
10437.03,10.86949
10438.96,10.83347
10440.89,10.80598
10442.82,10.83683
10444.75,10.85742
10446.68,10.8553
10448.6,10.81905
10450.53,10.78545
10452.46,10.79977
10454.39,10.83101
10456.32,10.82372
10458.25,10.80966
10460.18,10.81487
10462.1,10.78391
10464.03,10.78508
10465.96,10.79553
10467.89,10.78312
10469.82,10.76946
10471.75,10.78324
10473.67,10.78379
10475.6,10.78749
10477.53,10.8257
10479.46,10.80898
10481.39,10.76145
10483.32,10.75744
10485.25,10.76578
10487.17,10.76269
10489.1,10.74543
10491.03,10.77384
10492.96,10.77761
10494.89,10.73337
10496.82,10.71637
10498.75,10.72112
10500.67,10.71168
10502.6,10.74798
10504.53,10.7373
10506.46,10.7345
10508.39,10.71196
10510.32,10.68407
10512.25,10.66311
10514.17,10.69097
10516.1,10.69941
10518.03,10.69259
10519.96,10.66315
10521.89,10.62302
10523.82,10.59773
10525.74,10.56366
10527.67,10.55861
10529.6,10.58165
10531.53,10.60923
10533.46,10.62293
10535.39,10.62851
10537.32,10.62679
10539.24,10.60082
10541.17,10.56034
10543.1,10.58667
10545.03,10.55806
10546.96,10.52427
10548.89,10.55253
10550.81,10.52773
10552.74,10.51335
10554.67,10.52156
10556.6,10.48929
10558.53,10.45738
10560.46,10.46128
10562.39,10.47123
10564.31,10.46269
10566.24,10.4222
10568.17,10.38678
10570.1,10.39193
10572.03,10.41739
10573.96,10.40632
10575.89,10.38514
10577.81,10.31545
10579.74,10.29459
10581.67,10.29632
10583.6,10.3124
10585.53,10.29312
10587.46,10.27522
10589.38,10.28277
10591.31,10.27724
10593.24,10.27361
10595.17,10.26345
10597.1,10.2282
10599.03,10.19569
10600.96,10.21783
10602.88,10.23827
10604.81,10.21495
10606.74,10.21045
10608.67,10.19635
10610.6,10.13977
10612.53,10.11457
10614.46,10.11424
10616.38,10.10525
10618.31,10.10927
10620.24,10.12164
10622.17,10.11025
10624.1,10.05665
10626.03,10.0581
10627.96,10.09406
10629.88,10.06449
10631.81,10.03478
10633.74,10.00523
10635.67,9.973507
10637.6,9.99366
10639.53,9.977464
10641.45,9.95378
10643.38,9.946094
10645.31,9.937104
10647.24,9.95839
10649.17,9.933397
10651.1,9.877243
10653.03,9.908208
10654.95,9.944374
10656.88,9.911298
10658.81,9.873216
10660.74,9.874462
10662.67,9.85069
10664.6,9.855556
10666.52,9.87375
10668.45,9.850245
10670.38,9.834584
10672.31,9.820322
10674.24,9.780677
10676.17,9.759956
10678.1,9.806008
10680.02,9.83525
10681.95,9.805209
10683.88,9.752525
10685.81,9.716714
10687.74,9.74946
10689.67,9.77666
10691.59,9.770309
10693.52,9.77832
10695.45,9.747379
10697.38,9.769581
10699.31,9.768983
10701.24,9.750797
10703.17,9.774554
10705.09,9.810642
10707.02,9.770678
10708.95,9.770481
10710.88,9.791457
10712.81,9.777175
10714.74,9.769066
10716.67,9.73791
10718.59,9.740116
10720.52,9.709074
10722.45,9.753129
10724.38,9.760387
10726.31,9.75601
10728.24,9.69297
10730.17,9.691732
10732.09,9.709463
10734.02,9.761608
10735.95,9.786058
10737.88,9.755109
10739.81,9.739649
10741.74,9.77684
10743.67,9.760406
10745.59,9.717694
10747.52,9.704569
10749.45,9.762498
10751.38,9.782193
10753.31,9.766263
10755.24,9.789459
10757.16,9.802553
10759.09,9.76146
10761.02,9.782119
10762.95,9.766209
10764.88,9.761505
10766.81,9.758041
10768.74,9.769292
10770.66,9.752398
10772.59,9.777224
10774.52,9.759427
10776.45,9.762341
10778.38,9.778728
10780.31,9.784445
10782.23,9.788222
10784.16,9.773791
10786.09,9.758794
10788.02,9.788411
10789.95,9.788063
10791.88,9.738895
10793.81,9.742376
10795.73,9.76685
10797.66,9.751701
10799.59,9.750581
10801.52,9.749058
10803.45,9.74773
10805.38,9.731975
10807.3,9.7343
10809.23,9.727754
10811.16,9.72888
10813.09,9.721013
10815.02,9.727568
10816.95,9.724581
10818.88,9.75423
10820.8,9.741332
10822.73,9.692572
10824.66,9.659026
10826.59,9.671645
10828.52,9.664461
10830.45,9.669677
10832.38,9.701795
10834.3,9.717303
10836.23,9.694633
10838.16,9.693668
10840.09,9.655675
10842.02,9.678508
10843.95,9.676911
10845.88,9.648169
10847.8,9.651037
10849.73,9.653806
10851.66,9.6657
10853.59,9.647831
10855.52,9.631053
10857.45,9.601699
10859.38,9.621695
10861.3,9.666902
10863.23,9.682616
10865.16,9.666065
10867.09,9.655117
10869.02,9.648496
10870.95,9.637457
10872.87,9.617231
10874.8,9.59201
10876.73,9.636278
10878.66,9.691793
10880.59,9.689111
10882.52,9.671237
10884.45,9.661787
10886.37,9.674936
10888.3,9.671786
10890.23,9.619523
10892.16,9.6715
10894.09,9.680355
10896.02,9.638288
10897.94,9.637289
10899.87,9.685285
10901.8,9.653427
10903.73,9.597059
10905.66,9.590923
10907.59,9.626644
10909.52,9.60411
10911.44,9.575455
10913.37,9.639721
10915.3,9.654371
10917.23,9.631757
10919.16,9.627787
10921.09,9.600264
10923.01,9.624534
10924.94,9.600058
10926.87,9.585195
10928.8,9.590691
10930.73,9.580443
10932.66,9.56409
10934.59,9.594152
10936.51,9.604501
10938.44,9.558277
10940.37,9.521489
10942.3,9.508805
10944.23,9.519017
10946.16,9.448097
10948.09,9.428516
10950.01,9.508213
10951.94,9.530346
10953.87,9.536976
10955.8,9.513692
10957.73,9.546575
10959.66,9.580403
10961.58,9.584796
10963.51,9.611061
10965.44,9.647683
10967.37,9.600484
10969.3,9.622561
10971.23,9.654581
10973.16,9.626549
10975.08,9.590226
10977.01,9.617664
10978.94,9.619149
10980.87,9.648206
10982.8,9.668314
10984.73,9.648449
10986.66,9.618577
10988.58,9.620519
10990.51,9.676738
10992.44,9.695859
10994.37,9.693483
10996.3,9.721856
10998.23,9.743067
11000.16,9.773745
11002.08,9.80651
11004.01,9.810125
11005.94,9.85181
11007.87,9.856825
11009.8,9.872985
11011.73,9.892837
11013.65,9.915796
11015.58,9.874534
11017.51,9.90933
11019.44,9.91002
11021.37,9.913504
11023.3,9.989866
11025.23,9.987589
11027.15,9.9752
11029.08,9.975281
11031.01,9.994308
11032.94,10.05793
11034.87,10.04152
11036.8,10.00352
11038.72,10.0804
11040.65,10.12637
11042.58,10.11729
11044.51,10.08948
11046.44,10.11157
11048.37,10.12262
11050.3,10.12114
11052.22,10.11526
11054.15,10.14296
11056.08,10.17552
11058.01,10.21039
11059.94,10.21571
11061.87,10.2522
11063.79,10.25633
11065.72,10.24144
11067.65,10.2518
11069.58,10.3055
11071.51,10.34245
11073.44,10.33378
11075.37,10.31996
11077.29,10.3144
11079.22,10.35676
11081.15,10.38788
11083.08,10.39478
11085.01,10.33801
11086.94,10.35476
11088.87,10.41556
11090.79,10.43441
11092.72,10.44066
11094.65,10.40509
11096.58,10.39253
11098.51,10.44416
11100.44,10.47022
11102.37,10.49473
11104.29,10.48322
11106.22,10.53819
11108.15,10.63276
11110.08,10.57171
11112.01,10.51597
11113.94,10.51373
11115.87,10.56797
11117.79,10.59398
11119.72,10.60988
11121.65,10.62483
11123.58,10.63019
11125.51,10.62568
11127.44,10.67671
11129.36,10.70259
11131.29,10.6791
11133.22,10.63443
11135.15,10.6724
11137.08,10.7132
11139.01,10.70134
11140.94,10.69772
11142.86,10.7787
11144.79,10.84661
11146.72,10.8095
11148.65,10.794
11150.58,10.8178
11152.51,10.79003
11154.43,10.84299
11156.36,10.91425
11158.29,10.87278
11160.22,10.86481
11162.15,10.87246
11164.08,10.88681
11166.01,10.88647
11167.93,10.84144
11169.86,10.88194
11171.79,10.86148
11173.72,10.90302
11175.65,10.92974
11177.58,10.9318
11179.5,10.91948
11181.43,10.944
11183.36,10.94719
11185.29,10.89846
11187.22,10.96946
11189.15,10.97361
11191.08,10.90942
11193.0,10.94859
11194.93,11.00677
11196.86,11.01739
11198.79,10.99306
11200.72,10.97081
11202.65,10.95491
11204.58,11.02104
11206.5,11.06357
11208.43,11.07693
11210.36,11.06319
11212.29,11.04926
11214.22,11.04434
11216.15,11.06603
11218.08,11.07582
11220.0,11.06094
11221.93,11.06697
11223.86,11.08988
11225.79,11.06065
11227.72,11.07899
11229.65,11.09126
11231.58,11.06227
11233.5,11.06254
11235.43,11.10615
11237.36,11.15249
11239.29,11.12579
11241.22,11.12301
11243.15,11.10848
11245.07,11.05936
11247.0,11.10398
11248.93,11.12794
11250.86,11.12802
11252.79,11.18015
11254.72,11.15411
11256.65,11.17648
11258.57,11.19581
11260.5,11.16862
11262.43,11.14524
11264.36,11.11576
11266.29,11.11287
11268.22,11.15415
11270.14,11.14142
11272.07,11.1348
11274.0,11.14821
11275.93,11.14006
11277.86,11.12955
11279.79,11.10676
11281.72,11.13557
11283.64,11.13974
11285.57,11.15854
11287.5,11.17247
11289.43,11.14831
11291.36,11.10511
11293.29,11.1053
11295.21,11.0989
11297.14,11.10851
11299.07,11.13225
11301.0,11.1615
11302.93,11.13971
11304.86,11.16924
11306.79,11.20337
11308.71,11.20581
11310.64,11.19432
11312.57,11.20917
11314.5,11.16658
11316.43,11.13797
11318.36,11.11161
11320.29,11.15944
11322.21,11.20477
11324.14,11.15591
11326.07,11.1648
11328.0,11.1704
11329.93,11.21199
11331.86,11.21824
11333.79,11.28134
11335.71,11.29937
11337.64,11.27114
11339.57,11.28957
11341.5,11.2133
11343.43,11.22391
11345.36,11.25635
11347.28,11.36128
11349.21,11.34611
11351.14,11.30654
11353.07,11.30381
11355.0,11.33311
11356.93,11.32146
11358.86,11.28526
11360.78,11.23997
11362.71,11.2149
11364.64,11.17709
11366.57,11.19547
11368.5,11.19149
11370.43,11.21868
11372.36,11.21957
11374.28,11.2163
11376.21,11.27444
11378.14,11.29349
11380.07,11.32446
11382.0,11.31003
11383.93,11.27907
11385.85,11.25851
11387.78,11.34087
11389.71,11.39287
11391.64,11.36118
11393.57,11.39983
11395.5,11.45384
11397.43,11.38962
11399.35,11.34427
11401.28,11.29264
11403.21,11.29191
11405.14,11.3343
11407.07,11.35509
11409.0,11.39891
11410.92,11.4192
11412.85,11.39102
11414.78,11.39348
11416.71,11.43935
11418.64,11.44799
11420.57,11.4097
11422.5,11.39575
11424.42,11.40571
11426.35,11.38481
11428.28,11.38927
11430.21,11.45762
11432.14,11.43411
11434.07,11.42353
11436.0,11.47191
11437.92,11.47893
11439.85,11.50386
11441.78,11.42249
11443.71,11.35198
11445.64,11.32689
11447.57,11.33514
11449.5,11.42219
11451.42,11.50366
11453.35,11.48846
11455.28,11.46291
11457.21,11.46381
11459.14,11.44479
11461.07,11.43137
11462.99,11.48593
11464.92,11.45158
11466.85,11.43705
11468.78,11.45466
11470.71,11.52603
11472.64,11.50099
11474.57,11.48383
11476.49,11.51378
11478.42,11.55685
11480.35,11.47891
11482.28,11.4279
11484.21,11.43713
11486.14,11.45144
11488.07,11.46131
11489.99,11.49525
11491.92,11.55481
11493.85,11.51859
11495.78,11.50962
11497.71,11.45327
11499.64,11.50504
11501.56,11.5679
11503.49,11.50781
11505.42,11.37267
11507.35,11.42074
11509.28,11.49794
11511.21,11.47915
11513.14,11.55422
11515.06,11.53535
11516.99,11.5748
11518.92,11.61688
11520.85,11.54923
11522.78,11.50526
11524.71,11.484
11526.63,11.56268
11528.56,11.59975
11530.49,11.53164
11532.42,11.48314
11534.35,11.48365
11536.28,11.48145
11538.21,11.46388
11540.13,11.49268
11542.06,11.4805
11543.99,11.47785
11545.92,11.43763
11547.85,11.51724
11549.78,11.58874
11551.71,11.60135
11553.63,11.53945
11555.56,11.48357
11557.49,11.54281
11559.42,11.54776
11561.35,11.46591
11563.28,11.42015
11565.21,11.42549
11567.13,11.49871
11569.06,11.53914
11570.99,11.57064
11572.92,11.54405
11574.85,11.48583
11576.78,11.58076
11578.7,11.54684
11580.63,11.53045
11582.56,11.58226
11584.49,11.59823
11586.42,11.65197
11588.35,11.70533
11590.28,11.66054
11592.2,11.5822
11594.13,11.55587
11596.06,11.58964
11597.99,11.6083
11599.92,11.61461
11601.85,11.64201
11603.78,11.54982
11605.7,11.47161
11607.63,11.47707
11609.56,11.65391
11611.49,11.71522
11613.42,11.60954
11615.35,11.50625
11617.27,11.56115
11619.2,11.67117
11621.13,11.66233
11623.06,11.62881
11624.99,11.63084
11626.92,11.64951
11628.85,11.55527
11630.77,11.50213
11632.7,11.54737
11634.63,11.59137
11636.56,11.63239
11638.49,11.66131
11640.42,11.61411
11642.34,11.59436
11644.27,11.66096
11646.2,11.6518
11648.13,11.63705
11650.06,11.68548
11651.99,11.61148
11653.92,11.65632
11655.84,11.64102
11657.77,11.68788
11659.7,11.73881
11661.63,11.61324
11663.56,11.57499
11665.49,11.5916
11667.42,11.53024
11669.34,11.62352
11671.27,11.76704
11673.2,11.7798
11675.13,11.72505
11677.06,11.62494
11678.99,11.61351
11680.92,11.59237
11682.84,11.58981
11684.77,11.61012
11686.7,11.67315
11688.63,11.71931
11690.56,11.6791
11692.49,11.63891
11694.41,11.71723
11696.34,11.6576
11698.27,11.54359
11700.2,11.62395
11702.13,11.58623
11704.06,11.59303
11705.99,11.62998
11707.91,11.54656
11709.84,11.51811
11711.77,11.56758
11713.7,11.60303
11715.63,11.60593
11717.56,11.71635
11719.48,11.8056
11721.41,11.68032
11723.34,11.663
11725.27,11.73624
11727.2,11.59848
11729.13,11.55696
11731.06,11.69383
11732.98,11.73062
11734.91,11.69694
11736.84,11.72636
11738.77,11.76151
11740.7,11.68394
11742.63,11.63433
11744.56,11.75773
11746.48,11.80257
11748.41,11.75644
11750.34,11.73359
11752.27,11.77149
11754.2,11.77269
11756.13,11.8015
11758.05,11.7671
11759.98,11.81473
11761.91,11.88374
11763.84,11.84087
11765.77,11.82309
11767.7,11.77232
11769.63,11.77285
11771.55,11.75657
11773.48,11.81045
11775.41,11.80091
11777.34,11.84686
11779.27,11.85549
11781.2,11.73801
11783.13,11.61851
11785.05,11.67007
11786.98,11.69104
11788.91,11.68676
11790.84,11.68895
11792.77,11.74057
11794.7,11.63505
11796.63,11.62051
11798.55,11.72327
11800.48,11.73027
11802.41,11.74018
11804.34,11.69942
11806.27,11.61942
11808.2,11.72769
11810.12,11.77842
11812.05,11.70271
11813.98,11.69804
11815.91,11.71108
11817.84,11.77596
11819.77,11.6717
11821.7,11.71079
11823.62,11.78377
11825.55,11.74022
11827.48,11.75818
11829.41,11.73457
11831.34,11.83177
11833.27,11.99775
11835.19,12.04169
11837.12,11.8785
11839.05,11.80961
11840.98,11.84024
11842.91,11.81943
11844.84,11.7385
11846.77,11.63314
11848.69,11.47887
11850.62,11.66079
11852.55,11.85785
11854.48,11.84969
11856.41,11.82168
11858.34,11.87345
11860.27,11.84321
11862.19,11.73021
11864.12,11.79693
11866.05,11.84068
11867.98,11.86306
11869.91,11.76728
11871.84,11.71619
11873.76,11.83357
11875.69,11.77096
11877.62,11.83524
11879.55,11.90632
11881.48,11.85645
11883.41,11.74742
11885.34,11.62372
11887.26,11.70908
11889.19,11.76323
11891.12,11.80212
11893.05,11.7754
11894.98,11.79477
11896.91,11.79872
11898.83,11.81872
11900.76,11.86026
11902.69,11.75407
11904.62,11.8342
11906.55,12.01176
11908.48,12.02815
11910.41,11.86303
11912.33,11.74906
11914.26,11.69078
11916.19,11.7079
11918.12,11.7566
11920.05,11.85023
11921.98,11.85734
11923.91,11.87998
11925.83,11.96846
11927.76,12.04799
11929.69,11.99642
11931.62,11.89395
11933.55,11.88912
11935.48,11.87931
11937.41,11.86654
11939.33,11.89141
11941.26,11.88681
11943.19,11.86691
11945.12,11.94266
11947.05,11.89275
11948.98,11.91927
11950.9,11.89289
11952.83,11.86234
11954.76,11.93489
11956.69,11.96159
11958.62,11.97706
11960.55,11.98365
11962.48,11.88507
11964.4,11.90326
11966.33,11.95273
11968.26,11.98258
11970.19,11.89644
11972.12,11.82043
11974.05,11.89564
11975.98,11.7971
11977.9,11.91275
11979.83,12.03029
11981.76,11.94601
11983.69,11.93309
11985.62,11.94555
11987.55,11.95703
11989.47,12.02847
11991.4,12.02046
11993.33,11.95127
11995.26,11.99073
11997.19,12.05576
11999.12,12.11493
