Wavenumber,Intensity
3999.706,2.942806
4001.634,2.941994
4003.563,2.941879
4005.491,2.940414
4007.42,2.943097
4009.348,2.947837
4011.277,2.944974
4013.205,2.941266
4015.134,2.939924
4017.062,2.944643
4018.991,2.947911
4020.919,2.950684
4022.848,2.951088
4024.776,2.95084
4026.705,2.955625
4028.633,2.95947
4030.562,2.954407
4032.49,2.955001
4034.419,2.959618
4036.347,2.956691
4038.276,2.954416
4040.204,2.95557
4042.133,2.959814
4044.061,2.964869
4045.99,2.965755
4047.918,2.964111
4049.847,2.96607
4051.775,2.966405
4053.704,2.965137
4055.632,2.968436
4057.561,2.967237
4059.489,2.96369
4061.418,2.967299
4063.346,2.973945
4065.275,2.973652
4067.203,2.971804
4069.132,2.975665
4071.06,2.977424
4072.989,2.976014
4074.917,2.976763
4076.846,2.979701
4078.774,2.980493
4080.703,2.978857
4082.631,2.976848
4084.56,2.975272
4086.488,2.976305
4088.417,2.977688
4090.345,2.976599
4092.274,2.978378
4094.202,2.979029
4096.131,2.978175
4098.059,2.980093
4099.988,2.983528
4101.916,2.988148
4103.845,2.989173
4105.773,2.986691
4107.702,2.98229
4109.63,2.986513
4111.559,2.989042
4113.487,2.984722
4115.416,2.986281
4117.344,2.991968
4119.273,2.992476
4121.201,2.989777
4123.13,2.989268
4125.058,2.98849
4126.987,2.992064
4128.915,2.993268
4130.844,2.991146
4132.772,2.991463
4134.701,2.99396
4136.629,2.99318
4138.558,2.990214
4140.486,2.991341
4142.415,2.995162
4144.343,2.995749
4146.271,2.99381
4148.2,2.996276
4150.129,2.99676
4152.057,2.99621
4153.986,2.996235
4155.914,2.999527
4157.843,2.999616
4159.771,2.996047
4161.7,2.997508
4163.628,3.00101
4165.557,3.002501
4167.485,3.004447
4169.414,3.00714
4171.342,3.011383
4173.271,3.009829
4175.199,3.008797
4177.127,3.015023
4179.056,3.016674
4180.985,3.01517
4182.913,3.013104
4184.842,3.013418
4186.77,3.015348
4188.699,3.019169
4190.627,3.019919
4192.556,3.021058
4194.484,3.030041
4196.413,3.035751
4198.341,3.031904
4200.27,3.034731
4202.198,3.039747
4204.126,3.04011
4206.055,3.039406
4207.983,3.043041
4209.912,3.048985
4211.841,3.04976
4213.769,3.049816
4215.698,3.053664
4217.626,3.058314
4219.555,3.060313
4221.483,3.059966
4223.412,3.058978
4225.34,3.059398
4227.269,3.061082
4229.197,3.066314
4231.125,3.068394
4233.054,3.066182
4234.982,3.068204
4236.911,3.074475
4238.84,3.075963
4240.768,3.071323
4242.697,3.071459
4244.625,3.070998
4246.554,3.070091
4248.482,3.068447
4250.411,3.068344
4252.339,3.069246
4254.268,3.071939
4256.196,3.074126
4258.125,3.075726
4260.053,3.080492
4261.981,3.084246
4263.91,3.086509
4265.838,3.089712
4267.767,3.093651
4269.696,3.092209
4271.624,3.090666
4273.553,3.094802
4275.481,3.096748
4277.41,3.097726
4279.338,3.101562
4281.267,3.10347
4283.195,3.105228
4285.124,3.103151
4287.052,3.099785
4288.98,3.101323
4290.909,3.105658
4292.837,3.107464
4294.766,3.107116
4296.694,3.108281
4298.623,3.108977
4300.552,3.110018
4302.48,3.109891
4304.409,3.109363
4306.337,3.106698
4308.266,3.106276
4310.194,3.106168
4312.123,3.1038
4314.051,3.101977
4315.979,3.100073
4317.908,3.097888
4319.836,3.094446
4321.765,3.091736
4323.693,3.091774
4325.622,3.094925
4327.551,3.095528
4329.479,3.095425
4331.408,3.095818
4333.336,3.096898
4335.265,3.100541
4337.193,3.103511
4339.122,3.104559
4341.05,3.10499
4342.979,3.103553
4344.907,3.105823
4346.835,3.104805
4348.764,3.10723
4350.692,3.111335
4352.621,3.113935
4354.549,3.115846
4356.478,3.115015
4358.407,3.114829
4360.335,3.116009
4362.264,3.11631
4364.192,3.114671
4366.121,3.116087
4368.049,3.123477
4369.978,3.124914
4371.906,3.125914
4373.834,3.126624
4375.763,3.126026
4377.691,3.123316
4379.62,3.123038
4381.548,3.128151
4383.477,3.129525
4385.405,3.127675
4387.334,3.128236
4389.263,3.130556
4391.191,3.133218
4393.12,3.13768
4395.048,3.14001
4396.977,3.139727
4398.905,3.142246
4400.833,3.145148
4402.762,3.150189
4404.69,3.157175
4406.619,3.164438
4408.547,3.172527
4410.476,3.178967
4412.404,3.184966
4414.333,3.192009
4416.262,3.196767
4418.19,3.204639
4420.119,3.212888
4422.047,3.222622
4423.976,3.233399
4425.904,3.241048
4427.833,3.251194
4429.761,3.261276
4431.689,3.268405
4433.618,3.277241
4435.546,3.28605
4437.475,3.2979
4439.403,3.310988
4441.332,3.322221
4443.26,3.33288
4445.189,3.343706
4447.117,3.352122
4449.046,3.363734
4450.975,3.380187
4452.903,3.394975
4454.832,3.404916
4456.76,3.417473
4458.688,3.429183
4460.617,3.443588
4462.545,3.454334
4464.474,3.464745
4466.402,3.480106
4468.331,3.493043
4470.259,3.501854
4472.188,3.512081
4474.116,3.524462
4476.045,3.540977
4477.974,3.551008
4479.902,3.560974
4481.831,3.574301
4483.759,3.588075
4485.688,3.601523
4487.616,3.609471
4489.544,3.62115
4491.473,3.636107
4493.401,3.648295
4495.33,3.662759
4497.258,3.674984
4499.187,3.687713
4501.115,3.702397
4503.044,3.713777
4504.972,3.726079
4506.901,3.74047
4508.83,3.754516
4510.758,3.768086
4512.687,3.783644
4514.615,3.796729
4516.543,3.810671
4518.472,3.828418
4520.4,3.843139
4522.329,3.854176
4524.257,3.866741
4526.186,3.879194
4528.114,3.894265
4530.043,3.909266
4531.971,3.919435
4533.9,3.934794
4535.828,3.950348
4537.757,3.968673
4539.686,3.985661
4541.614,3.99788
4543.542,4.012463
4545.471,4.031751
4547.399,4.04678
4549.328,4.063794
4551.256,4.078918
4553.185,4.093491
4555.113,4.1109
4557.042,4.130887
4558.97,4.14885
4560.899,4.162795
4562.827,4.179244
4564.756,4.19672
4566.685,4.20925
4568.613,4.221131
4570.542,4.235877
4572.47,4.25265
4574.398,4.265105
4576.327,4.27531
4578.255,4.285259
4580.184,4.291738
4582.112,4.30296
4584.041,4.31665
4585.969,4.327216
4587.898,4.333349
4589.826,4.34316
4591.755,4.354602
4593.683,4.366154
4595.612,4.37265
4597.54,4.378916
4599.469,4.3859
4601.397,4.39083
4603.326,4.394604
4605.254,4.399317
4607.183,4.406395
4609.111,4.414481
4611.04,4.424043
4612.968,4.429841
4614.897,4.432277
4616.825,4.437584
4618.754,4.446007
4620.682,4.45387
4622.611,4.462744
4624.539,4.469707
4626.468,4.476636
4628.396,4.485678
4630.325,4.492323
4632.253,4.492036
4634.182,4.494188
4636.11,4.497862
4638.039,4.50242
4639.967,4.50564
4641.896,4.510068
4643.824,4.510914
4645.753,4.509868
4647.681,4.509451
4649.61,4.507747
4651.538,4.503433
4653.467,4.49753
4655.396,4.490955
4657.324,4.479564
4659.252,4.464776
4661.181,4.453965
4663.109,4.442771
4665.038,4.432513
4666.966,4.432046
4668.895,4.439528
4670.823,4.450083
4672.752,4.462033
4674.68,4.478095
4676.609,4.499173
4678.537,4.519235
4680.466,4.533716
4682.394,4.545149
4684.323,4.557348
4686.251,4.565412
4688.18,4.57056
4690.108,4.57542
4692.037,4.580852
4693.965,4.582448
4695.894,4.584702
4697.822,4.584205
4699.751,4.58603
4701.679,4.587678
4703.608,4.587311
4705.536,4.588431
4707.465,4.586942
4709.393,4.582613
4711.322,4.579933
4713.25,4.57689
4715.179,4.572857
4717.107,4.567737
4719.036,4.560275
4720.964,4.552249
4722.893,4.543836
4724.821,4.538914
4726.75,4.532171
4728.678,4.524009
4730.606,4.519291
4732.535,4.513007
4734.464,4.510095
4736.392,4.50913
4738.321,4.506663
4740.249,4.503537
4742.178,4.500472
4744.106,4.497298
4746.035,4.490976
4747.963,4.483891
4749.892,4.478302
4751.82,4.474025
4753.749,4.470756
4755.677,4.468944
4757.605,4.464267
4759.534,4.455731
4761.463,4.447669
4763.391,4.439205
4765.32,4.432049
4767.248,4.423036
4769.177,4.410439
4771.105,4.397418
4773.034,4.386898
4774.962,4.376196
4776.891,4.366673
4778.819,4.362158
4780.748,4.35902
4782.676,4.356007
4784.604,4.352968
4786.533,4.350699
4788.462,4.347714
4790.39,4.343089
4792.319,4.339398
4794.247,4.338935
4796.176,4.335255
4798.104,4.326846
4800.033,4.32287
4801.961,4.317272
4803.89,4.309733
4805.818,4.305952
4807.747,4.298429
4809.675,4.286654
4811.604,4.275362
4813.532,4.268126
4815.46,4.261557
4817.389,4.249454
4819.317,4.236473
4821.246,4.22999
4823.175,4.219705
4825.103,4.207875
4827.032,4.202121
4828.96,4.195911
4830.889,4.187247
4832.817,4.179077
4834.746,4.172969
4836.674,4.164484
4838.603,4.154191
4840.531,4.143236
4842.459,4.132207
4844.388,4.118979
4846.316,4.105492
4848.245,4.090826
4850.174,4.078074
4852.102,4.068561
4854.031,4.059165
4855.959,4.048456
4857.888,4.039345
4859.816,4.033246
4861.745,4.026543
4863.673,4.017889
4865.602,4.01109
4867.53,4.005246
4869.458,4.004257
4871.387,4.005357
4873.315,4.006758
4875.244,4.00947
4877.172,4.011666
4879.101,4.01654
4881.03,4.018967
4882.958,4.023694
4884.887,4.028809
4886.815,4.032023
4888.744,4.035239
4890.672,4.04095
4892.601,4.043425
4894.529,4.045922
4896.458,4.0526
4898.386,4.054271
4900.314,4.055696
4902.243,4.055848
4904.171,4.059818
4906.1,4.064803
4908.028,4.067301
4909.957,4.070043
4911.886,4.069379
4913.814,4.068579
4915.743,4.067047
4917.671,4.064538
4919.6,4.063946
4921.528,4.061996
4923.457,4.0607
4925.385,4.059236
4927.313,4.058879
4929.242,4.058627
4931.17,4.060412
4933.099,4.062324
4935.027,4.061308
4936.956,4.059388
4938.885,4.056279
4940.813,4.054607
4942.742,4.053849
4944.67,4.047869
4946.599,4.039871
4948.527,4.02751
4950.456,4.011092
4952.384,3.994744
4954.313,3.97665
4956.241,3.952577
4958.169,3.932321
4960.098,3.913444
4962.026,3.895665
4963.955,3.886366
4965.883,3.88597
4967.812,3.891487
4969.74,3.899238
4971.669,3.907606
4973.598,3.914548
4975.526,3.921014
4977.455,3.926557
4979.383,3.931744
4981.312,3.936474
4983.24,3.942596
4985.168,3.952837
4987.097,3.962372
4989.025,3.970899
4990.954,3.982016
4992.882,3.993025
4994.811,4.003096
4996.739,4.015876
4998.668,4.03052
5000.597,4.043854
5002.525,4.050623
5004.454,4.057141
5006.382,4.065164
5008.311,4.071611
5010.239,4.073181
5012.167,4.074661
5014.096,4.077096
5016.024,4.076727
5017.953,4.077339
5019.881,4.08197
5021.81,4.088156
5023.738,4.092696
5025.667,4.096613
5027.596,4.0999
5029.524,4.105901
5031.452,4.111372
5033.381,4.115085
5035.31,4.115191
5037.238,4.115225
5039.167,4.119976
5041.095,4.119382
5043.023,4.119068
5044.952,4.119309
5046.88,4.118241
5048.809,4.118354
5050.737,4.11479
5052.666,4.110659
5054.595,4.111199
5056.523,4.103989
5058.451,4.094097
5060.38,4.089436
5062.309,4.092086
5064.237,4.088304
5066.166,4.086795
5068.094,4.087866
5070.022,4.088218
5071.951,4.089927
5073.879,4.092895
5075.808,4.090714
5077.736,4.089478
5079.665,4.089239
5081.593,4.084323
5083.522,4.085873
5085.45,4.085937
5087.379,4.079806
5089.308,4.077771
5091.236,4.076792
5093.165,4.072631
5095.093,4.068011
5097.021,4.065845
5098.95,4.066407
5100.878,4.067936
5102.807,4.070186
5104.735,4.073262
5106.664,4.074884
5108.592,4.077158
5110.521,4.082479
5112.449,4.087454
5114.378,4.08899
5116.307,4.091194
5118.235,4.097495
5120.163,4.100027
5122.092,4.101487
5124.021,4.103675
5125.949,4.10537
5127.877,4.105327
5129.806,4.106624
5131.734,4.110639
5133.663,4.11179
5135.591,4.111352
5137.52,4.110441
5139.448,4.109674
5141.377,4.10684
5143.305,4.103417
5145.234,4.097284
5147.162,4.094052
5149.091,4.089571
5151.02,4.087004
5152.948,4.080404
5154.876,4.076397
5156.805,4.075394
5158.733,4.072073
5160.662,4.069976
5162.59,4.07299
5164.519,4.075113
5166.447,4.074877
5168.376,4.074434
5170.304,4.073319
5172.233,4.070009
5174.161,4.069798
5176.09,4.069379
5178.019,4.067037
5179.947,4.067348
5181.875,4.067162
5183.804,4.06823
5185.732,4.066298
5187.661,4.062138
5189.589,4.063822
5191.518,4.066258
5193.446,4.06615
5195.375,4.068643
5197.303,4.073669
5199.232,4.070075
5201.16,4.069904
5203.089,4.073267
5205.018,4.083728
5206.946,4.086339
5208.874,4.078017
5210.803,4.069355
5212.731,4.068365
5214.66,4.068781
5216.588,4.072093
5218.517,4.074931
5220.445,4.073948
5222.374,4.075767
5224.302,4.08208
5226.231,4.082863
5228.159,4.078566
5230.088,4.081079
5232.016,4.086656
5233.945,4.087425
5235.873,4.087471
5237.802,4.088953
5239.73,4.090169
5241.659,4.094922
5243.587,4.104701
5245.516,4.106875
5247.444,4.106504
5249.373,4.105517
5251.301,4.105874
5253.229,4.11178
5255.158,4.115291
5257.087,4.110184
5259.015,4.107231
5260.944,4.11117
5262.872,4.116917
5264.801,4.115891
5266.729,4.109575
5268.658,4.107975
5270.586,4.101447
5272.515,4.101371
5274.443,4.101734
5276.372,4.097921
5278.3,4.103795
5280.229,4.109591
5282.157,4.106981
5284.086,4.108751
5286.014,4.107837
5287.943,4.107215
5289.871,4.115679
5291.8,4.11024
5293.729,4.102611
5295.657,4.099508
5297.585,4.098039
5299.514,4.097934
5301.442,4.095044
5303.371,4.089663
5305.299,4.086509
5307.228,4.084404
5309.156,4.080927
5311.085,4.080142
5313.013,4.08672
5314.941,4.100266
5316.87,4.112393
5318.799,4.120994
5320.727,4.129672
5322.656,4.136822
5324.584,4.143843
5326.513,4.147597
5328.441,4.144934
5330.37,4.141209
5332.298,4.138064
5334.227,4.133488
5336.155,4.135312
5338.084,4.131448
5340.012,4.119018
5341.94,4.10749
5343.869,4.104816
5345.798,4.093677
5347.726,4.076877
5349.655,4.057495
5351.583,4.046517
5353.512,4.04115
5355.44,4.027439
5357.369,4.012486
5359.297,4.005016
5361.226,4.000233
5363.154,3.99277
5365.083,3.982019
5367.011,3.97285
5368.939,3.960851
5370.868,3.95134
5372.797,3.948998
5374.725,3.946589
5376.654,3.942672
5378.582,3.934987
5380.511,3.925461
5382.439,3.924151
5384.368,3.923061
5386.296,3.918217
5388.225,3.905208
5390.153,3.895007
5392.082,3.89265
5394.01,3.887622
5395.938,3.876772
5397.867,3.862976
5399.796,3.851314
5401.724,3.845134
5403.652,3.836595
5405.581,3.825504
5407.51,3.814586
5409.438,3.809319
5411.367,3.798077
5413.295,3.782727
5415.224,3.761164
5417.152,3.739573
5419.081,3.728272
5421.009,3.724639
5422.938,3.725034
5424.866,3.721253
5426.795,3.716311
5428.723,3.712877
5430.651,3.706111
5432.58,3.704719
5434.509,3.701757
5436.437,3.698502
5438.366,3.697999
5440.294,3.701014
5442.223,3.698223
5444.151,3.694682
5446.08,3.691055
5448.008,3.683939
5449.937,3.67742
5451.865,3.670873
5453.793,3.668596
5455.722,3.666897
5457.65,3.664964
5459.579,3.66538
5461.508,3.666323
5463.436,3.661959
5465.365,3.652941
5467.293,3.651913
5469.222,3.651067
5471.15,3.642475
5473.079,3.642642
5475.007,3.640644
5476.936,3.629067
5478.864,3.622974
5480.792,3.618376
5482.721,3.614448
5484.649,3.609167
5486.578,3.604141
5488.507,3.600925
5490.435,3.599558
5492.363,3.604554
5494.292,3.603137
5496.221,3.600609
5498.149,3.600231
5500.078,3.599005
5502.006,3.599493
5503.935,3.603197
5505.863,3.609055
5507.792,3.612491
5509.72,3.611212
5511.648,3.610917
5513.577,3.611658
5515.505,3.615948
5517.434,3.61738
5519.362,3.618791
5521.291,3.619908
5523.22,3.618581
5525.148,3.616326
5527.077,3.616344
5529.005,3.612802
5530.934,3.612844
5532.862,3.614154
5534.791,3.615114
5536.719,3.612474
5538.647,3.608344
5540.576,3.60623
5542.504,3.607304
5544.433,3.606923
5546.361,3.605166
5548.29,3.603719
5550.219,3.603649
5552.147,3.602848
5554.076,3.602997
5556.004,3.605077
5557.933,3.606907
5559.861,3.607102
5561.79,3.610478
5563.718,3.617249
5565.646,3.62408
5567.575,3.629055
5569.503,3.63485
5571.432,3.643347
5573.36,3.653939
5575.289,3.660352
5577.218,3.668748
5579.146,3.673079
5581.074,3.679432
5583.003,3.688055
5584.932,3.690788
5586.86,3.692189
5588.789,3.692047
5590.717,3.696461
5592.646,3.694642
5594.574,3.69127
5596.502,3.690883
5598.431,3.685427
5600.359,3.677316
5602.288,3.671945
5604.216,3.664138
5606.145,3.657644
5608.073,3.647727
5610.002,3.637221
5611.931,3.629446
5613.859,3.620061
5615.788,3.611976
5617.716,3.607618
5619.645,3.602134
5621.573,3.593393
5623.501,3.581721
5625.43,3.571573
5627.358,3.563688
5629.287,3.556972
5631.215,3.54711
5633.144,3.537917
5635.072,3.532715
5637.001,3.526531
5638.93,3.519411
5640.858,3.509163
5642.786,3.498375
5644.715,3.48135
5646.644,3.466394
5648.572,3.450126
5650.5,3.434468
5652.429,3.416932
5654.357,3.396901
5656.286,3.382064
5658.214,3.371759
5660.143,3.363148
5662.071,3.356573
5664.0,3.355399
5665.929,3.358039
5667.857,3.361667
5669.785,3.368684
5671.714,3.375391
5673.643,3.386275
5675.571,3.390876
5677.5,3.395061
5679.428,3.405247
5681.356,3.4135
5683.285,3.421326
5685.213,3.426321
5687.142,3.433282
5689.07,3.441251
5690.999,3.449675
5692.927,3.459395
5694.856,3.468649
5696.784,3.482623
5698.713,3.494249
5700.642,3.502147
5702.57,3.510915
5704.499,3.523854
5706.427,3.540093
5708.355,3.549111
5710.284,3.555751
5712.212,3.562614
5714.141,3.564422
5716.069,3.567185
5717.998,3.568694
5719.926,3.563645
5721.855,3.553335
5723.783,3.539459
5725.712,3.519629
5727.641,3.494374
5729.569,3.476848
5731.497,3.464813
5733.426,3.457689
5735.354,3.450788
5737.283,3.442059
5739.211,3.433547
5741.14,3.428766
5743.068,3.422067
5744.997,3.411499
5746.925,3.399124
5748.854,3.384077
5750.782,3.374577
5752.711,3.367155
5754.639,3.359587
5756.568,3.351626
5758.496,3.343506
5760.425,3.336141
5762.354,3.331859
5764.282,3.327824
5766.21,3.321232
5768.139,3.313469
5770.067,3.309554
5771.996,3.308582
5773.924,3.308219
5775.853,3.3116
5777.781,3.310384
5779.71,3.315099
5781.638,3.320256
5783.567,3.319338
5785.495,3.321615
5787.424,3.323137
5789.353,3.323482
5791.281,3.328407
5793.209,3.333597
5795.138,3.337465
5797.066,3.341628
5798.995,3.343901
5800.923,3.344066
5802.852,3.348184
5804.78,3.352594
5806.709,3.356114
5808.637,3.357536
5810.566,3.360771
5812.494,3.369195
5814.423,3.37576
5816.352,3.379273
5818.28,3.384821
5820.208,3.390218
5822.137,3.394458
5824.065,3.402868
5825.994,3.413451
5827.922,3.419921
5829.851,3.429239
5831.779,3.439305
5833.708,3.447976
5835.636,3.456747
5837.565,3.46402
5839.493,3.471911
5841.422,3.48136
5843.35,3.496324
5845.279,3.514382
5847.207,3.531634
5849.136,3.549995
5851.064,3.572658
5852.993,3.59527
5854.921,3.618133
5856.85,3.647074
5858.778,3.681628
5860.707,3.717387
5862.635,3.752905
5864.563,3.78825
5866.492,3.830069
5868.421,3.8751
5870.349,3.922242
5872.278,3.971401
5874.206,4.02741
5876.135,4.085036
5878.063,4.141852
5879.992,4.197851
5881.92,4.258935
5883.849,4.318233
5885.777,4.371499
5887.706,4.423295
5889.634,4.472396
5891.563,4.517353
5893.491,4.557167
5895.42,4.591912
5897.348,4.623552
5899.277,4.65533
5901.205,4.689077
5903.134,4.721716
5905.063,4.760061
5906.991,4.799998
5908.919,4.840641
5910.848,4.890233
5912.776,4.951816
5914.705,5.015909
5916.633,5.080253
5918.562,5.147298
5920.49,5.223243
5922.419,5.300174
5924.347,5.380628
5926.276,5.458969
5928.204,5.538255
5930.133,5.614018
5932.061,5.686843
5933.99,5.760461
5935.918,5.832139
5937.847,5.897284
5939.775,5.961497
5941.704,6.023795
5943.632,6.083375
5945.561,6.137164
5947.489,6.19378
5949.418,6.249249
5951.346,6.304119
5953.274,6.359297
5955.203,6.411945
5957.132,6.464357
5959.06,6.523936
5960.989,6.585815
5962.917,6.644973
5964.846,6.703022
5966.774,6.764477
5968.703,6.82537
5970.631,6.886951
5972.56,6.940002
5974.488,6.995887
5976.417,7.053325
5978.345,7.110208
5980.273,7.156355
5982.202,7.205664
5984.131,7.256794
5986.059,7.302709
5987.988,7.348634
5989.916,7.398643
5991.845,7.442524
5993.773,7.486629
5995.702,7.527339
5997.63,7.573609
5999.559,7.619307
6001.487,7.659165
6003.416,7.696228
6005.344,7.737391
6007.272,7.774948
6009.201,7.817365
6011.13,7.856734
6013.058,7.895431
6014.986,7.929838
6016.915,7.968403
6018.844,8.006836
6020.772,8.043687
6022.701,8.076736
6024.629,8.112515
6026.558,8.147299
6028.486,8.181745
6030.415,8.211928
6032.343,8.240372
6034.271,8.265395
6036.2,8.295759
6038.129,8.327482
6040.057,8.354363
6041.985,8.378014
6043.914,8.406631
6045.843,8.431867
6047.771,8.455659
6049.7,8.478697
6051.628,8.50319
6053.557,8.522804
6055.485,8.549065
6057.414,8.573434
6059.342,8.596861
6061.271,8.613828
6063.199,8.632872
6065.128,8.651348
6067.056,8.673527
6068.984,8.689463
6070.913,8.702406
6072.842,8.719613
6074.77,8.740808
6076.698,8.75928
6078.627,8.77435
6080.556,8.787996
6082.484,8.805957
6084.413,8.816476
6086.341,8.832261
6088.27,8.843873
6090.198,8.851071
6092.126,8.863972
6094.055,8.876057
6095.983,8.882054
6097.912,8.890545
6099.841,8.898819
6101.769,8.907164
6103.697,8.916267
6105.626,8.924592
6107.555,8.929567
6109.483,8.940352
6111.412,8.952413
6113.34,8.965186
6115.269,8.980336
6117.197,8.995521
6119.125,9.008075
6121.054,9.025413
6122.982,9.04208
6124.911,9.055908
6126.84,9.064601
6128.768,9.082439
6130.696,9.103978
6132.625,9.122353
6134.554,9.135848
6136.482,9.150535
6138.41,9.16655
6140.339,9.187416
6142.268,9.205603
6144.196,9.221378
6146.125,9.235386
6148.053,9.252846
6149.981,9.267078
6151.91,9.280945
6153.839,9.297729
6155.767,9.313295
6157.695,9.331499
6159.624,9.347002
6161.553,9.36023
6163.481,9.377777
6165.409,9.388844
6167.338,9.404757
6169.267,9.425969
6171.195,9.440607
6173.124,9.45353
6175.052,9.471551
6176.98,9.479889
6178.909,9.491912
6180.837,9.50505
6182.766,9.518892
6184.694,9.527802
6186.623,9.536749
6188.552,9.546329
6190.48,9.56321
6192.408,9.572612
6194.337,9.580818
6196.266,9.589265
6198.194,9.59568
6200.123,9.601162
6202.051,9.611551
6203.979,9.622106
6205.908,9.633595
6207.836,9.64201
6209.765,9.650041
6211.693,9.655757
6213.622,9.660948
6215.551,9.665141
6217.479,9.678882
6219.407,9.685089
6221.336,9.692484
6223.265,9.700021
6225.193,9.707126
6227.121,9.71312
6229.05,9.7212
6230.979,9.727299
6232.907,9.733025
6234.835,9.734503
6236.764,9.737124
6238.692,9.736628
6240.621,9.742061
6242.549,9.750218
6244.478,9.754932
6246.406,9.757183
6248.335,9.76351
6250.264,9.766699
6252.192,9.771298
6254.12,9.767548
6256.049,9.766779
6257.978,9.773806
6259.906,9.779674
6261.834,9.784053
6263.763,9.787844
6265.691,9.785662
6267.62,9.789045
6269.548,9.792915
6271.477,9.798535
6273.405,9.802285
6275.334,9.80328
6277.263,9.803559
6279.191,9.8063
6281.119,9.811912
6283.048,9.816648
6284.977,9.818569
6286.905,9.822511
6288.833,9.823379
6290.762,9.822596
6292.69,9.824799
6294.619,9.828285
6296.547,9.825616
6298.476,9.830924
6300.404,9.835989
6302.333,9.839534
6304.262,9.837769
6306.19,9.835619
6308.118,9.834349
6310.047,9.835268
6311.976,9.834613
6313.904,9.839175
6315.832,9.840398
6317.761,9.839724
6319.689,9.833362
6321.618,9.831938
6323.546,9.828747
6325.475,9.821362
6327.403,9.81646
6329.332,9.815153
6331.26,9.810003
6333.189,9.806183
6335.117,9.804152
6337.046,9.799953
6338.975,9.794219
6340.903,9.787056
6342.831,9.781022
6344.76,9.778471
6346.688,9.771709
6348.617,9.761571
6350.545,9.751198
6352.474,9.744694
6354.402,9.737153
6356.331,9.731854
6358.259,9.722595
6360.188,9.711907
6362.116,9.697429
6364.045,9.682969
6365.974,9.665824
6367.902,9.653788
6369.83,9.63809
6371.759,9.619033
6373.688,9.600808
6375.616,9.58876
6377.544,9.577004
6379.473,9.568567
6381.401,9.557878
6383.33,9.555312
6385.258,9.550255
6387.187,9.542718
6389.115,9.536304
6391.044,9.536503
6392.973,9.531458
6394.901,9.526285
6396.829,9.518025
6398.758,9.508491
6400.687,9.49871
6402.615,9.483469
6404.543,9.46186
6406.472,9.444906
6408.4,9.420076
6410.329,9.397917
6412.257,9.37431
6414.186,9.347736
6416.114,9.330314
6418.043,9.320309
6419.971,9.310305
6421.9,9.299468
6423.828,9.288672
6425.757,9.282851
6427.686,9.279515
6429.614,9.267111
6431.542,9.252465
6433.471,9.241447
6435.399,9.227732
6437.328,9.217709
6439.256,9.195091
6441.185,9.177937
6443.113,9.155399
6445.042,9.127566
6446.97,9.100095
6448.898,9.071915
6450.827,9.0372
6452.756,9.007008
6454.685,8.980913
6456.613,8.951183
6458.541,8.909582
6460.47,8.861946
6462.398,8.811428
6464.327,8.751653
6466.255,8.682546
6468.184,8.606427
6470.112,8.523257
6472.041,8.438173
6473.969,8.343891
6475.897,8.257312
6477.826,8.185251
6479.755,8.133397
6481.684,8.100791
6483.612,8.090756
6485.54,8.095699
6487.469,8.10733
6489.397,8.130759
6491.326,8.157996
6493.254,8.187526
6495.183,8.215848
6497.111,8.242461
6499.04,8.271955
6500.968,8.301048
6502.896,8.325286
6504.825,8.34809
6506.754,8.367353
6508.682,8.39148
6510.61,8.414711
6512.539,8.428944
6514.468,8.443734
6516.396,8.462904
6518.325,8.47662
6520.253,8.485092
6522.182,8.502037
6524.11,8.516466
6526.039,8.529226
6527.967,8.540329
6529.896,8.550653
6531.824,8.561467
6533.753,8.572971
6535.681,8.577158
6537.609,8.586123
6539.538,8.595288
6541.467,8.602271
6543.396,8.610004
6545.324,8.618834
6547.252,8.6272
6549.181,8.633291
6551.109,8.6361
6553.038,8.636062
6554.966,8.642085
6556.895,8.65346
6558.823,8.663095
6560.752,8.669626
6562.68,8.674163
6564.608,8.684162
6566.537,8.690747
6568.466,8.702764
6570.394,8.714344
6572.323,8.722633
6574.251,8.727353
6576.18,8.734981
6578.108,8.742931
6580.037,8.749747
6581.965,8.752943
6583.894,8.758523
6585.822,8.761462
6587.751,8.763971
6589.679,8.768343
6591.607,8.771721
6593.536,8.775416
6595.465,8.779058
6597.393,8.781047
6599.321,8.784322
6601.25,8.784005
6603.179,8.779371
6605.107,8.777407
6607.036,8.778407
6608.964,8.776009
6610.893,8.779365
6612.821,8.778903
6614.75,8.776957
6616.678,8.77142
6618.606,8.76825
6620.535,8.761959
6622.464,8.759645
6624.392,8.751724
6626.32,8.746145
6628.249,8.745703
6630.178,8.740146
6632.106,8.733873
6634.035,8.727637
6635.963,8.719479
6637.892,8.713078
6639.82,8.708663
6641.749,8.703125
6643.677,8.693736
6645.605,8.686738
6647.534,8.680256
6649.463,8.671741
6651.391,8.658096
6653.319,8.651198
6655.248,8.642681
6657.177,8.632004
6659.105,8.619704
6661.034,8.612241
6662.962,8.602406
6664.891,8.588655
6666.819,8.576672
6668.748,8.569007
6670.676,8.55899
6672.604,8.547484
6674.533,8.537359
6676.462,8.524203
6678.39,8.509226
6680.318,8.494776
6682.247,8.482246
6684.176,8.469679
6686.104,8.453637
6688.032,8.435891
6689.961,8.425228
6691.89,8.41548
6693.818,8.401034
6695.747,8.384969
6697.675,8.365081
6699.604,8.348831
6701.532,8.336413
6703.46,8.318286
6705.389,8.303552
6707.317,8.291428
6709.246,8.268866
6711.175,8.243055
6713.103,8.227603
6715.031,8.212864
6716.96,8.195143
6718.889,8.178741
6720.817,8.159771
6722.746,8.137331
6724.674,8.122615
6726.603,8.110791
6728.531,8.090364
6730.459,8.075559
6732.388,8.060835
6734.316,8.04466
6736.245,8.027464
6738.174,8.011602
6740.102,7.991941
6742.03,7.97545
6743.959,7.955585
6745.888,7.936393
6747.816,7.923666
6749.745,7.907011
6751.673,7.888812
6753.602,7.875954
6755.53,7.859103
6757.458,7.841367
6759.387,7.829527
6761.315,7.811046
6763.244,7.78972
6765.173,7.772256
6767.101,7.752673
6769.029,7.734296
6770.958,7.713646
6772.887,7.687171
6774.815,7.669361
6776.743,7.650955
6778.672,7.62025
6780.601,7.592013
6782.529,7.562561
6784.458,7.539169
6786.386,7.510485
6788.314,7.478445
6790.243,7.446032
6792.171,7.413548
6794.1,7.379618
6796.028,7.35089
6797.957,7.317005
6799.886,7.282125
6801.814,7.247908
6803.742,7.217952
6805.671,7.188036
6807.6,7.156394
6809.528,7.123314
6811.457,7.096561
6813.385,7.071011
6815.313,7.040898
6817.242,7.009163
6819.17,6.974519
6821.099,6.939036
6823.027,6.906348
6824.956,6.874072
6826.885,6.84003
6828.813,6.80309
6830.741,6.774587
6832.67,6.750471
6834.599,6.725211
6836.527,6.702943
6838.455,6.687207
6840.384,6.671503
6842.313,6.657569
6844.241,6.642686
6846.169,6.632151
6848.098,6.616924
6850.026,6.600509
6851.955,6.583365
6853.884,6.567299
6855.812,6.54759
6857.74,6.52801
6859.669,6.512766
6861.598,6.499701
6863.526,6.482305
6865.454,6.467405
6867.383,6.452125
6869.312,6.432346
6871.24,6.415081
6873.168,6.39412
6875.097,6.368968
6877.025,6.351856
6878.954,6.327101
6880.882,6.300766
6882.811,6.283185
6884.739,6.261899
6886.668,6.235501
6888.597,6.21218
6890.525,6.18777
6892.453,6.169321
6894.382,6.146472
6896.311,6.118005
6898.239,6.098948
6900.167,6.083793
6902.096,6.063873
6904.024,6.047917
6905.953,6.035967
6907.881,6.024232
6909.81,6.005681
6911.738,5.985661
6913.667,5.964441
6915.596,5.95146
6917.524,5.932436
6919.452,5.907298
6921.381,5.885073
6923.31,5.862823
6925.238,5.845431
6927.166,5.82238
6929.095,5.793803
6931.023,5.766864
6932.952,5.734535
6934.88,5.709822
6936.809,5.676447
6938.737,5.640444
6940.666,5.607488
6942.594,5.579863
6944.523,5.552485
6946.451,5.53051
6948.38,5.512504
6950.309,5.499671
6952.237,5.487778
6954.165,5.482329
6956.094,5.481943
6958.022,5.478381
6959.951,5.475893
6961.879,5.478553
6963.808,5.472641
6965.736,5.47143
6967.665,5.469851
6969.593,5.46729
6971.521,5.467304
6973.45,5.474012
6975.379,5.469942
6977.308,5.461894
6979.236,5.458886
6981.164,5.460774
6983.093,5.46089
6985.021,5.452692
6986.95,5.442397
6988.878,5.434457
6990.807,5.425757
6992.735,5.41386
6994.664,5.400231
6996.592,5.398592
6998.521,5.390338
7000.449,5.374274
7002.378,5.363436
7004.307,5.346932
7006.235,5.329899
7008.163,5.312219
7010.092,5.300066
7012.021,5.295263
7013.949,5.284078
7015.877,5.266938
7017.806,5.252999
7019.734,5.243533
7021.663,5.236207
7023.591,5.234203
7025.52,5.232459
7027.448,5.234128
7029.377,5.232851
7031.305,5.231763
7033.234,5.236778
7035.162,5.241608
7037.091,5.242846
7039.02,5.244411
7040.948,5.242583
7042.876,5.229899
7044.805,5.216307
7046.733,5.202147
7048.662,5.181269
7050.59,5.153645
7052.519,5.122826
7054.447,5.091634
7056.376,5.05332
7058.304,5.017056
7060.232,4.993002
7062.161,4.980444
7064.09,4.974573
7066.019,4.988499
7067.947,5.009851
7069.875,5.04452
7071.804,5.092245
7073.732,5.137245
7075.661,5.181852
7077.589,5.229794
7079.518,5.277032
7081.446,5.315663
7083.375,5.347996
7085.303,5.374263
7087.231,5.402154
7089.16,5.423057
7091.089,5.443118
7093.018,5.467584
7094.946,5.492502
7096.874,5.516001
7098.803,5.536569
7100.731,5.565125
7102.66,5.593409
7104.588,5.629876
7106.517,5.663847
7108.445,5.693437
7110.374,5.722042
7112.302,5.755675
7114.23,5.787229
7116.159,5.826581
7118.088,5.869888
7120.016,5.892115
7121.944,5.910682
7123.873,5.92504
7125.802,5.941365
7127.73,5.954438
7129.659,5.958883
7131.587,5.950265
7133.516,5.941491
7135.444,5.930035
7137.373,5.90861
7139.301,5.88319
7141.229,5.859916
7143.158,5.828305
7145.087,5.79821
7147.015,5.752731
7148.943,5.703079
7150.872,5.646719
7152.801,5.575559
7154.729,5.497025
7156.658,5.406753
7158.586,5.304082
7160.515,5.187446
7162.443,5.055548
7164.372,4.937861
7166.3,4.839293
7168.229,4.751342
7170.157,4.687129
7172.086,4.654227
7174.014,4.657627
7175.942,4.696588
7177.871,4.74708
7179.8,4.801503
7181.729,4.883181
7183.657,4.956758
7185.585,5.030063
7187.514,5.099359
7189.442,5.180034
7191.371,5.258091
7193.299,5.340436
7195.228,5.421118
7197.156,5.49405
7199.085,5.564209
7201.013,5.645701
7202.941,5.729942
7204.87,5.817235
7206.799,5.88047
7208.727,5.947438
7210.655,6.017269
7212.584,6.085135
7214.513,6.143881
7216.441,6.21419
7218.37,6.286984
7220.298,6.363174
7222.227,6.422355
7224.155,6.495414
7226.083,6.579193
7228.012,6.651134
7229.94,6.71789
7231.869,6.809049
7233.798,6.867509
7235.726,6.91509
7237.654,6.975469
7239.583,7.038374
7241.512,7.107803
7243.44,7.18298
7245.369,7.235998
7247.297,7.290614
7249.226,7.348043
7251.154,7.415671
7253.083,7.486176
7255.011,7.542567
7256.939,7.595036
7258.868,7.656969
7260.797,7.730701
7262.725,7.799461
7264.653,7.853489
7266.582,7.919011
7268.511,7.978119
7270.439,8.040788
7272.368,8.103952
7274.296,8.171316
7276.225,8.226064
7278.153,8.286498
7280.082,8.344986
7282.01,8.404465
7283.938,8.463286
7285.867,8.526194
7287.796,8.594734
7289.724,8.649556
7291.652,8.702685
7293.581,8.774544
7295.51,8.832486
7297.438,8.877034
7299.366,8.937068
7301.295,8.993297
7303.224,9.045085
7305.152,9.110157
7307.081,9.181614
7309.009,9.231635
7310.938,9.291644
7312.866,9.343847
7314.794,9.39244
7316.723,9.441658
7318.651,9.485011
7320.58,9.537846
7322.509,9.588774
7324.437,9.630049
7326.365,9.667529
7328.294,9.728354
7330.223,9.744731
7332.151,9.76775
7334.08,9.787558
7336.008,9.82106
7337.937,9.853032
7339.865,9.894867
7341.793,9.913375
7343.722,9.933082
7345.65,9.950284
7347.579,9.981203
7349.508,10.01106
7351.436,10.03179
7353.364,10.05892
7355.293,10.10211
7357.222,10.12246
7359.15,10.14379
7361.079,10.18336
7363.007,10.2175
7364.936,10.24257
7366.864,10.27705
7368.792,10.31306
7370.721,10.33896
7372.649,10.36318
7374.578,10.40799
7376.507,10.43567
7378.435,10.45175
7380.363,10.49242
7382.292,10.52284
7384.221,10.53895
7386.149,10.55841
7388.077,10.57701
7390.006,10.60158
7391.935,10.61978
7393.863,10.63988
7395.792,10.65499
7397.72,10.67227
7399.648,10.68501
7401.577,10.69533
7403.505,10.71387
7405.434,10.73536
7407.362,10.74506
7409.291,10.74558
7411.22,10.75222
7413.148,10.76643
7415.076,10.7763
7417.005,10.78321
7418.934,10.79619
7420.862,10.80858
7422.791,10.80586
7424.719,10.80617
7426.647,10.81651
7428.576,10.82583
7430.504,10.83151
7432.433,10.83555
7434.361,10.84992
7436.29,10.85674
7438.219,10.85223
7440.147,10.85323
7442.075,10.85793
7444.004,10.86856
7445.933,10.87831
7447.861,10.88075
7449.789,10.88917
7451.718,10.89226
7453.646,10.89078
7455.575,10.89812
7457.503,10.90024
7459.432,10.90783
7461.36,10.918
7463.289,10.91829
7465.218,10.92079
7467.146,10.92198
7469.074,10.92288
7471.003,10.92661
7472.932,10.92604
7474.86,10.92623
7476.788,10.9256
7478.717,10.92972
7480.646,10.93588
7482.574,10.93941
7484.502,10.93467
7486.431,10.93634
7488.359,10.93952
7490.288,10.93962
7492.216,10.93128
7494.145,10.93338
7496.073,10.93731
7498.002,10.94063
7499.931,10.93561
7501.859,10.9325
7503.787,10.92927
7505.716,10.92824
7507.645,10.92533
7509.573,10.92437
7511.501,10.92197
7513.43,10.91814
7515.358,10.91655
7517.287,10.91383
7519.215,10.91718
7521.144,10.92241
7523.072,10.91506
7525.001,10.91017
7526.93,10.90571
7528.858,10.90343
7530.786,10.90661
7532.715,10.90229
7534.644,10.89781
7536.572,10.89835
7538.5,10.89101
7540.429,10.87938
7542.357,10.87304
7544.286,10.87591
7546.214,10.87263
7548.143,10.87072
7550.071,10.86674
7552.0,10.85426
7553.928,10.84799
7555.857,10.84819
7557.785,10.8465
7559.714,10.84468
7561.643,10.84132
7563.571,10.83063
7565.499,10.82803
7567.428,10.82428
7569.356,10.81819
7571.285,10.81432
7573.213,10.81093
7575.142,10.8112
7577.07,10.80128
7578.999,10.79553
7580.927,10.79377
7582.855,10.78937
7584.784,10.7843
7586.713,10.78321
7588.642,10.77573
7590.57,10.76766
7592.498,10.7615
7594.427,10.75198
7596.355,10.74991
7598.284,10.74835
7600.212,10.73611
7602.141,10.71942
7604.069,10.71274
7605.998,10.70639
7607.926,10.70144
7609.854,10.69792
7611.783,10.69052
7613.712,10.67839
7615.641,10.67373
7617.569,10.66956
7619.497,10.65665
7621.426,10.64081
7623.354,10.63485
7625.283,10.62898
7627.211,10.61631
7629.14,10.6062
7631.068,10.59928
7632.997,10.58951
7634.925,10.58069
7636.854,10.57466
7638.782,10.5644
7640.711,10.54928
7642.639,10.54215
7644.568,10.53144
7646.496,10.51571
7648.425,10.5112
7650.354,10.50634
7652.282,10.49333
7654.21,10.48107
7656.139,10.46818
7658.067,10.4642
7659.996,10.4676
7661.924,10.45972
7663.853,10.44621
7665.781,10.44773
7667.71,10.43978
7669.638,10.42432
7671.566,10.41799
7673.495,10.40907
7675.424,10.40537
7677.353,10.39757
7679.281,10.39086
7681.209,10.39082
7683.138,10.38052
7685.066,10.37261
7686.995,10.37276
7688.923,10.35875
7690.852,10.35513
7692.78,10.35903
7694.709,10.35267
7696.637,10.34237
7698.565,10.33479
7700.494,10.33096
7702.423,10.33128
7704.352,10.32287
7706.28,10.31351
7708.208,10.30344
7710.137,10.29775
7712.065,10.29753
7713.994,10.28635
7715.922,10.27934
7717.851,10.26682
7719.779,10.26369
7721.708,10.25887
7723.636,10.25133
7725.564,10.24065
7727.493,10.23537
7729.422,10.23375
7731.35,10.22788
7733.279,10.21927
7735.207,10.21479
7737.136,10.21127
7739.064,10.2062
7740.993,10.19722
7742.921,10.19846
7744.85,10.19336
7746.778,10.18491
7748.707,10.17418
7750.635,10.16967
7752.563,10.15765
7754.492,10.14713
7756.421,10.15033
7758.349,10.14151
7760.277,10.12495
7762.206,10.11348
7764.135,10.10427
7766.063,10.10348
7767.992,10.09861
7769.92,10.08418
7771.849,10.06822
7773.777,10.06611
7775.706,10.05731
7777.634,10.04875
7779.563,10.04513
7781.491,10.03871
7783.42,10.03929
7785.348,10.03967
7787.276,10.03951
7789.205,10.03433
7791.134,10.02284
7793.063,10.01649
7794.991,10.01251
7796.919,10.0075
7798.848,9.99818
7800.776,9.995745
7802.705,9.987857
7804.633,9.976883
7806.562,9.963361
7808.49,9.957314
7810.419,9.943474
7812.347,9.932557
7814.275,9.929696
7816.204,9.924712
7818.133,9.918966
7820.061,9.911964
7821.989,9.904427
7823.918,9.89528
7825.847,9.881924
7827.775,9.875566
7829.704,9.872955
7831.632,9.859519
7833.561,9.846425
7835.489,9.84271
7837.417,9.83947
7839.346,9.828088
7841.274,9.813901
7843.203,9.80375
7845.132,9.788685
7847.06,9.776131
7848.988,9.764339
7850.917,9.759475
7852.846,9.744269
7854.774,9.733086
7856.703,9.721278
7858.631,9.706808
7860.56,9.694517
7862.488,9.687127
7864.417,9.672971
7866.345,9.652483
7868.273,9.637468
7870.202,9.623178
7872.131,9.615267
7874.059,9.607445
7875.987,9.586415
7877.916,9.564363
7879.845,9.557741
7881.773,9.545228
7883.702,9.530787
7885.63,9.519848
7887.559,9.50156
7889.487,9.483752
7891.416,9.463711
7893.344,9.449803
7895.272,9.437564
7897.201,9.411089
7899.13,9.377556
7901.058,9.375593
7902.986,9.363878
7904.915,9.351524
7906.844,9.33281
7908.772,9.315266
7910.7,9.300233
7912.629,9.28412
7914.558,9.269872
7916.486,9.254879
7918.415,9.233753
7920.343,9.209675
7922.271,9.194418
7924.2,9.174161
7926.128,9.155671
7928.057,9.133992
7929.985,9.106838
7931.914,9.089734
7933.843,9.074795
7935.771,9.056982
7937.699,9.029935
7939.628,9.011159
7941.557,8.996344
7943.485,8.968558
7945.414,8.941993
7947.342,8.92713
7949.271,8.906734
7951.199,8.881367
7953.127,8.860758
7955.056,8.840038
7956.984,8.815767
7958.913,8.785598
7960.842,8.759859
7962.77,8.735059
7964.698,8.710284
7966.627,8.681445
7968.556,8.658908
7970.484,8.637886
7972.413,8.60895
7974.341,8.579135
7976.27,8.558662
7978.198,8.540843
7980.126,8.517695
7982.055,8.498499
7983.983,8.467806
7985.912,8.437276
7987.841,8.404157
7989.769,8.376909
7991.697,8.354261
7993.626,8.327271
7995.555,8.29776
7997.483,8.27219
7999.411,8.250935
8001.34,8.223883
8003.269,8.185255
8005.197,8.147855
8007.125,8.118727
8009.054,8.093172
8010.982,8.064741
8012.911,8.040023
8014.839,8.003386
8016.768,7.971291
8018.696,7.944964
8020.625,7.909967
8022.554,7.870576
8024.482,7.844593
8026.41,7.813385
8028.339,7.777801
8030.268,7.752775
8032.196,7.729379
8034.125,7.691314
8036.053,7.648922
8037.981,7.608854
8039.91,7.5767
8041.838,7.551208
8043.767,7.516581
8045.695,7.472836
8047.624,7.436461
8049.553,7.40423
8051.481,7.369482
8053.409,7.330683
8055.338,7.293294
8057.267,7.257135
8059.195,7.218892
8061.124,7.179245
8063.052,7.14063
8064.98,7.101876
8066.909,7.071844
8068.837,7.031572
8070.766,6.994798
8072.694,6.957498
8074.623,6.922487
8076.552,6.884133
8078.48,6.84336
8080.408,6.807057
8082.337,6.766155
8084.266,6.727139
8086.194,6.691541
8088.122,6.652839
8090.051,6.606765
8091.979,6.56149
8093.908,6.517515
8095.836,6.479458
8097.765,6.443028
8099.693,6.391765
8101.622,6.353997
8103.551,6.315111
8105.479,6.271599
8107.407,6.23328
8109.336,6.199262
8111.265,6.151743
8113.192,6.100373
8115.121,6.05803
8117.05,6.012562
8118.979,5.961762
8120.907,5.910418
8122.835,5.866107
8124.764,5.823236
8126.692,5.77323
8128.621,5.724668
8130.55,5.680109
8132.478,5.642604
8134.406,5.598194
8136.335,5.545716
8138.264,5.509074
8140.191,5.473425
8142.12,5.430737
8144.049,5.382546
8145.978,5.338104
8147.906,5.288011
8149.834,5.236466
8151.763,5.192714
8153.691,5.156391
8155.62,5.118168
8157.548,5.06854
8159.477,5.019313
8161.405,4.979562
8163.334,4.94183
8165.263,4.891243
8167.19,4.844063
8169.119,4.808651
8171.048,4.769913
8172.977,4.737111
8174.905,4.694396
8176.833,4.654977
8178.762,4.625752
8180.69,4.59023
8182.619,4.548512
8184.547,4.510667
8186.476,4.479618
8188.404,4.454134
8190.333,4.426443
8192.262,4.391975
8194.189,4.367553
8196.118,4.352509
8198.047,4.338685
8199.976,4.319698
8201.903,4.297725
8203.832,4.281884
8205.761,4.265174
8207.689,4.254858
8209.618,4.246255
8211.546,4.233024
8213.475,4.216994
8215.403,4.21466
8217.332,4.206031
8219.261,4.208284
8221.188,4.203034
8223.117,4.206742
8225.046,4.20112
8226.975,4.19547
8228.902,4.189701
8230.831,4.193114
8232.76,4.193128
8234.688,4.189259
8236.617,4.202005
8238.545,4.216565
8240.474,4.211135
8242.402,4.204595
8244.331,4.215568
8246.259,4.221155
8248.188,4.224357
8250.116,4.236266
8252.045,4.243383
8253.974,4.242884
8255.901,4.248185
8257.83,4.257174
8259.759,4.264983
8261.688,4.279076
8263.616,4.28672
8265.544,4.294105
8267.473,4.313555
8269.401,4.318525
8271.33,4.336803
8273.258,4.3617
8275.187,4.380116
8277.115,4.400934
8279.044,4.406979
8280.973,4.418335
8282.9,4.444589
8284.829,4.466797
8286.758,4.490143
8288.687,4.518836
8290.614,4.541733
8292.543,4.567281
8294.472,4.585646
8296.4,4.613009
8298.329,4.644904
8300.257,4.668207
8302.186,4.689506
8304.114,4.71513
8306.043,4.742794
8307.972,4.767375
8309.899,4.788525
8311.828,4.808873
8313.757,4.828554
8315.686,4.864834
8317.613,4.901344
8319.542,4.924994
8321.471,4.948555
8323.399,4.974879
8325.328,4.996202
8327.256,5.021371
8329.185,5.052991
8331.113,5.084203
8333.042,5.110824
8334.97,5.146509
8336.898,5.1731
8338.827,5.194487
8340.756,5.22487
8342.685,5.257473
8344.612,5.298711
8346.541,5.34737
8348.47,5.380509
8350.398,5.403722
8352.327,5.437321
8354.255,5.462533
8356.184,5.496571
8358.112,5.533308
8360.041,5.566482
8361.969,5.608454
8363.897,5.63756
8365.826,5.673338
8367.755,5.701192
8369.684,5.734043
8371.611,5.766272
8373.54,5.80511
8375.469,5.840374
8377.397,5.869601
8379.325,5.895957
8381.254,5.930062
8383.183,5.956114
8385.111,5.979823
8387.04,5.997248
8388.968,6.03045
8390.896,6.059345
8392.825,6.081058
8394.754,6.092676
8396.683,6.099886
8398.61,6.121749
8400.539,6.142892
8402.468,6.146058
8404.396,6.16022
8406.324,6.17159
8408.253,6.177269
8410.182,6.184504
8412.11,6.192288
8414.039,6.197806
8415.967,6.205216
8417.896,6.20716
8419.824,6.205025
8421.753,6.210258
8423.681,6.230445
8425.609,6.254686
8427.538,6.27801
8429.467,6.298579
8431.396,6.322653
8433.323,6.351996
8435.252,6.389469
8437.181,6.426925
8439.109,6.455861
8441.037,6.497748
8442.966,6.542666
8444.895,6.591406
8446.823,6.631054
8448.752,6.668887
8450.68,6.719937
8452.608,6.772418
8454.537,6.811522
8456.466,6.850039
8458.395,6.899809
8460.322,6.939866
8462.251,6.971875
8464.18,7.006195
8466.108,7.040665
8468.036,7.070889
8469.965,7.110977
8471.894,7.149181
8473.822,7.179309
8475.751,7.216541
8477.679,7.256474
8479.607,7.295197
8481.536,7.329741
8483.465,7.374224
8485.393,7.416421
8487.321,7.449162
8489.25,7.48118
8491.179,7.522035
8493.107,7.556807
8495.035,7.579805
8496.964,7.615119
8498.893,7.639832
8500.821,7.663005
8502.75,7.700083
8504.678,7.715991
8506.606,7.727965
8508.535,7.745565
8510.464,7.753003
8512.392,7.76557
8514.32,7.780955
8516.249,7.79603
8518.178,7.813702
8520.106,7.836694
8522.034,7.857787
8523.963,7.879864
8525.892,7.895282
8527.82,7.913849
8529.748,7.930746
8531.677,7.932786
8533.605,7.940503
8535.534,7.945159
8537.463,7.949731
8539.391,7.939895
8541.319,7.927957
8543.248,7.909465
8545.177,7.884082
8547.105,7.868687
8549.033,7.84286
8550.962,7.807397
8552.891,7.766894
8554.819,7.72743
8556.747,7.693218
8558.676,7.66456
8560.604,7.638624
8562.533,7.617866
8564.462,7.615994
8566.39,7.638886
8568.318,7.668906
8570.247,7.6893
8572.176,7.724855
8574.104,7.781323
8576.032,7.838262
8577.961,7.888933
8579.89,7.922698
8581.818,7.976561
8583.746,8.033735
8585.675,8.08323
8587.604,8.150534
8589.532,8.215528
8591.461,8.276673
8593.389,8.334262
8595.317,8.391636
8597.246,8.463579
8599.175,8.530813
8601.103,8.595811
8603.031,8.66459
8604.96,8.723531
8606.889,8.780396
8608.817,8.845853
8610.745,8.914049
8612.674,8.977298
8614.603,9.041308
8616.531,9.089704
8618.459,9.157372
8620.388,9.220744
8622.316,9.265379
8624.245,9.319859
8626.174,9.384147
8628.102,9.431398
8630.03,9.473302
8631.959,9.522
8633.888,9.561892
8635.816,9.603594
8637.744,9.649078
8639.673,9.692303
8641.602,9.739978
8643.53,9.782391
8645.458,9.831109
8647.387,9.863723
8649.315,9.880771
8651.244,9.904169
8653.173,9.934776
8655.101,9.96098
8657.029,10.00554
8658.958,10.04728
8660.887,10.06957
8662.814,10.09936
8664.743,10.12705
8666.672,10.14385
8668.601,10.17163
8670.529,10.19846
8672.457,10.21715
8674.386,10.24146
8676.314,10.26678
8678.243,10.29193
8680.172,10.31232
8682.1,10.3433
8684.028,10.37336
8685.957,10.38786
8687.886,10.41993
8689.813,10.4584
8691.742,10.48443
8693.671,10.51177
8695.6,10.55398
8697.528,10.57662
8699.456,10.60085
8701.385,10.63692
8703.313,10.68546
8705.242,10.7266
8707.17,10.75461
8709.099,10.78646
8711.027,10.81773
8712.956,10.84047
8714.885,10.87788
8716.813,10.92438
8718.741,10.96047
8720.67,10.99035
8722.599,11.02387
8724.527,11.05182
8726.455,11.08719
8728.384,11.1151
8730.313,11.14337
8732.241,11.18417
8734.169,11.22702
8736.098,11.2568
8738.026,11.28948
8739.955,11.31586
8741.884,11.33966
8743.812,11.37812
8745.74,11.42188
8747.669,11.45031
8749.598,11.47014
8751.525,11.49657
8753.454,11.52521
8755.383,11.54923
8757.312,11.56271
8759.24,11.59404
8761.168,11.62913
8763.097,11.65012
8765.025,11.66956
8766.954,11.68581
8768.882,11.70207
8770.811,11.72814
8772.739,11.75673
8774.668,11.76851
8776.597,11.77964
8778.524,11.80745
8780.453,11.83337
8782.382,11.84468
8784.311,11.86358
8786.239,11.88129
8788.167,11.89244
8790.096,11.91162
8792.024,11.92614
8793.953,11.9371
8795.881,11.94524
8797.81,11.95031
8799.738,11.96543
8801.667,11.98754
8803.596,11.9929
8805.523,12.00954
8807.452,12.02992
8809.381,12.04313
8811.31,12.05602
8813.237,12.06855
8815.166,12.0787
8817.095,12.08207
8819.023,12.07979
8820.952,12.09927
8822.88,12.11461
8824.809,12.11377
8826.737,12.11565
8828.666,12.12759
8830.595,12.12926
8832.522,12.13741
8834.451,12.15205
8836.38,12.15351
8838.309,12.15802
8840.236,12.16753
8842.165,12.18609
8844.094,12.1876
8846.022,12.17838
8847.951,12.17336
8849.879,12.17491
8851.808,12.17472
8853.736,12.18582
8855.665,12.20367
8857.593,12.21032
8859.521,12.19809
8861.45,12.18908
8863.379,12.18861
8865.308,12.20551
8867.235,12.21989
8869.164,12.22289
8871.093,12.22748
8873.021,12.21615
8874.95,12.21367
8876.878,12.22521
8878.807,12.23087
8880.735,12.23324
8882.664,12.24244
8884.592,12.24229
8886.521,12.23036
8888.449,12.22256
8890.378,12.2311
8892.307,12.24799
8894.234,12.23583
8896.163,12.22219
8898.092,12.22976
8900.021,12.238
8901.948,12.23316
8903.877,12.22471
8905.806,12.22441
8907.734,12.23541
8909.663,12.23185
8911.591,12.22315
8913.52,12.22693
8915.448,12.22428
8917.377,12.2268
8919.306,12.23063
8921.233,12.23256
8923.162,12.22673
8925.091,12.22152
8927.02,12.21898
8928.947,12.22406
8930.876,12.22517
8932.805,12.21807
8934.733,12.2255
8936.662,12.22009
8938.59,12.21803
8940.519,12.21979
8942.447,12.21863
8944.376,12.21487
8946.304,12.21867
8948.232,12.21436
8950.161,12.1996
8952.09,12.199
8954.019,12.2241
8955.946,12.22611
8957.875,12.21329
8959.804,12.20772
8961.732,12.20689
8963.661,12.20004
8965.589,12.21285
8967.518,12.22341
8969.446,12.21702
8971.375,12.21858
8973.303,12.22026
8975.231,12.22002
8977.16,12.22856
8979.089,12.23181
8981.018,12.2387
8982.945,12.23191
8984.874,12.21529
8986.803,12.2126
8988.731,12.22983
8990.659,12.23606
8992.588,12.23605
8994.517,12.22993
8996.445,12.23837
8998.374,12.24205
9000.302,12.23991
9002.23,12.2567
9004.159,12.26583
9006.088,12.25
9008.017,12.23472
9009.944,12.23918
9011.873,12.2617
9013.802,12.27263
9015.73,12.26271
9017.658,12.26217
9019.587,12.27154
9021.516,12.26045
9023.444,12.26464
9025.373,12.27446
9027.301,12.29
9029.229,12.28807
9031.158,12.26402
9033.087,12.26848
9035.015,12.28049
9036.943,12.27716
9038.872,12.28321
9040.801,12.28621
9042.729,12.29419
9044.657,12.28864
9046.586,12.28475
9048.515,12.28862
9050.443,12.29505
9052.372,12.29186
9054.3,12.29499
9056.229,12.30116
9058.157,12.29203
9060.086,12.28513
9062.014,12.28772
9063.942,12.30103
9065.871,12.30668
9067.8,12.30843
9069.729,12.30779
9071.656,12.30678
9073.585,12.31881
9075.514,12.31059
9077.442,12.28547
9079.37,12.28845
9081.299,12.30576
9083.228,12.31085
9085.156,12.31387
9087.085,12.30784
9089.013,12.3151
9090.941,12.30637
9092.87,12.29243
9094.799,12.30414
9096.727,12.31468
9098.655,12.31539
9100.584,12.31907
9102.513,12.31568
9104.441,12.31307
9106.369,12.31555
9108.298,12.32122
9110.227,12.31148
9112.155,12.30852
9114.084,12.31514
9116.012,12.3133
9117.94,12.30578
9119.869,12.30748
9121.798,12.31056
9123.726,12.314
9125.654,12.32082
9127.583,12.32082
9129.512,12.31042
9131.44,12.30016
9133.368,12.29597
9135.297,12.29594
9137.226,12.29712
9139.154,12.29674
9141.082,12.27584
9143.011,12.28662
9144.939,12.27936
9146.868,12.27628
9148.797,12.27366
9150.725,12.27664
9152.653,12.26586
9154.582,12.26048
9156.511,12.26597
9158.439,12.27623
9160.367,12.27761
9162.296,12.26082
9164.225,12.24227
9166.153,12.24818
9168.081,12.25206
9170.01,12.25876
9171.938,12.25715
9173.867,12.25767
9175.796,12.25439
9177.724,12.25436
9179.652,12.24321
9181.581,12.24018
9183.51,12.24202
9185.438,12.23256
9187.366,12.22776
9189.295,12.22698
9191.224,12.21363
9193.152,12.21067
9195.08,12.2013
9197.009,12.20172
9198.938,12.20556
9200.866,12.20885
9202.795,12.2022
9204.723,12.19345
9206.651,12.19602
9208.58,12.19158
9210.509,12.19938
9212.437,12.2009
9214.365,12.19308
9216.294,12.18027
9218.223,12.17488
9220.151,12.17437
9222.079,12.18474
9224.008,12.18555
9225.937,12.17976
9227.865,12.17458
9229.793,12.16749
9231.722,12.16746
9233.65,12.17581
9235.579,12.15336
9237.508,12.14937
9239.436,12.16649
9241.364,12.18249
9243.293,12.18609
9245.222,12.17266
9247.15,12.15082
9249.078,12.1428
9251.007,12.13681
9252.936,12.13763
9254.864,12.14179
9256.792,12.13409
9258.721,12.14133
9260.649,12.12776
9262.578,12.11813
9264.507,12.11646
9266.435,12.12818
9268.363,12.12725
9270.292,12.12745
9272.221,12.11747
9274.148,12.10736
9276.077,12.11139
9278.006,12.10048
9279.935,12.09219
9281.863,12.09016
9283.791,12.08227
9285.72,12.08016
9287.648,12.08287
9289.577,12.07604
9291.506,12.06268
9293.434,12.06671
9295.362,12.06835
9297.291,12.09542
9299.22,12.09004
9301.147,12.08802
9303.076,12.085
9305.005,12.09226
9306.934,12.10521
9308.862,12.09999
9310.79,12.08739
9312.719,12.08951
9314.647,12.09465
9316.576,12.10534
9318.504,12.11643
9320.433,12.10375
9322.361,12.07996
9324.29,12.08369
9326.219,12.09731
9328.146,12.09771
9330.075,12.10333
9332.004,12.0897
9333.933,12.08501
9335.861,12.0835
9337.789,12.08491
9339.718,12.07369
9341.646,12.06604
9343.575,12.0525
9345.503,12.05437
9347.432,12.06693
9349.36,12.06579
9351.289,12.05658
9353.218,12.05923
9355.146,12.05876
9357.074,12.04099
9359.003,12.0282
9360.932,12.03123
9362.859,12.02853
9364.788,12.01166
9366.717,12.02233
9368.646,12.03268
9370.574,12.02817
9372.502,12.02396
9374.431,12.00841
9376.359,11.99732
9378.288,11.98348
9380.217,11.97635
9382.145,11.99311
9384.073,11.99349
9386.002,11.98294
9387.931,11.97908
9389.858,11.97209
9391.787,11.96736
9393.716,11.95746
9395.645,11.9474
9397.573,11.94905
9399.501,11.94366
9401.43,11.93356
9403.358,11.92566
9405.287,11.92878
9407.215,11.92147
9409.144,11.91992
9411.072,11.92789
9413.001,11.91069
9414.93,11.91257
9416.857,11.9114
9418.786,11.89382
9420.715,11.87428
9422.644,11.87235
9424.571,11.87731
9426.5,11.87648
9428.429,11.87927
9430.357,11.8589
9432.286,11.84422
9434.214,11.83954
9436.143,11.8444
9438.071,11.83929
9440.0,11.82748
9441.929,11.81264
9443.856,11.79904
9445.785,11.77934
9447.714,11.78332
9449.643,11.80417
9451.57,11.80233
9453.499,11.77535
9455.428,11.76524
9457.356,11.76596
9459.285,11.76099
9461.213,11.72906
9463.142,11.71552
9465.07,11.71193
9466.999,11.71572
9468.927,11.70607
9470.855,11.68713
9472.784,11.7001
9474.713,11.70366
9476.642,11.69899
9478.569,11.6923
9480.498,11.67786
9482.427,11.68769
9484.355,11.70679
9486.284,11.69309
9488.212,11.68111
9490.141,11.66642
9492.069,11.65953
9493.998,11.67042
9495.926,11.64784
9497.854,11.64136
9499.783,11.65095
9501.712,11.64462
9503.641,11.62629
9505.568,11.61024
9507.497,11.63939
9509.426,11.64408
9511.354,11.62642
9513.282,11.62392
9515.211,11.61326
9517.14,11.60987
9519.068,11.61233
9520.997,11.61078
9522.925,11.59619
9524.854,11.5934
9526.782,11.60604
9528.711,11.59347
9530.64,11.56981
9532.567,11.56115
9534.496,11.5661
9536.425,11.57634
9538.354,11.56962
9540.281,11.55501
9542.21,11.53527
9544.139,11.51659
9546.067,11.51926
9547.996,11.53446
9549.924,11.54755
9551.853,11.52769
9553.781,11.51444
9555.71,11.51942
9557.638,11.51478
9559.566,11.51254
9561.495,11.50604
9563.424,11.50193
9565.353,11.49492
9567.28,11.4696
9569.209,11.4648
9571.138,11.46406
9573.066,11.47471
9574.995,11.47419
9576.923,11.45634
9578.852,11.46418
9580.78,11.44818
9582.709,11.43421
9584.637,11.45061
9586.565,11.45414
9588.494,11.42949
9590.423,11.4414
9592.352,11.44813
9594.279,11.43781
9596.208,11.43987
9598.137,11.44581
9600.065,11.42962
9601.993,11.42611
9603.922,11.43592
9605.851,11.44757
9607.779,11.44916
9609.708,11.45319
9611.636,11.45758
9613.564,11.46294
9615.493,11.46149
9617.422,11.46975
9619.351,11.47315
9621.278,11.48898
9623.207,11.51398
9625.136,11.52088
9627.064,11.52286
9628.992,11.5278
9630.921,11.53069
9632.85,11.54052
9634.778,11.54476
9636.707,11.52974
9638.635,11.54282
9640.563,11.56497
9642.492,11.57476
9644.421,11.56998
9646.349,11.5891
9648.277,11.5953
9650.206,11.61841
9652.135,11.62421
9654.063,11.6258
9655.991,11.64943
9657.92,11.66205
9659.849,11.66171
9661.777,11.6577
9663.706,11.67025
9665.634,11.69181
9667.563,11.70444
9669.491,11.70527
9671.42,11.72344
9673.348,11.7197
9675.276,11.72166
9677.205,11.72944
9679.134,11.75248
9681.063,11.76877
9682.99,11.76803
9684.919,11.76387
9686.848,11.76381
9688.776,11.7764
9690.704,11.79711
9692.633,11.80667
9694.562,11.81623
9696.49,11.82456
9698.419,11.83811
9700.347,11.84968
9702.275,11.8501
9704.204,11.85434
9706.133,11.85843
9708.062,11.8695
9709.989,11.88307
9711.918,11.89102
9713.847,11.91495
9715.775,11.92198
9717.703,11.91506
9719.632,11.92167
9721.561,11.93543
9723.489,11.95258
9725.418,11.97772
9727.346,11.98677
9729.274,11.99637
9731.203,12.01262
9733.132,12.00517
9735.06,12.02057
9736.988,12.04102
9738.917,12.034
9740.846,12.02964
9742.774,12.02506
9744.702,12.03452
9746.631,12.06106
9748.56,12.06497
9750.488,12.07303
9752.416,12.07745
9754.345,12.06566
9756.273,12.06911
9758.202,12.09173
9760.131,12.09521
9762.059,12.09882
9763.987,12.11248
9765.916,12.11553
9767.845,12.12397
9769.773,12.13265
9771.701,12.13958
9773.63,12.11554
9775.559,12.12745
9777.487,12.13685
9779.415,12.13058
9781.344,12.12802
9783.272,12.12756
9785.201,12.12639
9787.13,12.14272
9789.058,12.13911
9790.986,12.13442
9792.915,12.13525
9794.844,12.12263
9796.771,12.1313
9798.7,12.12568
9800.629,12.12819
9802.558,12.13225
9804.486,12.13369
9806.414,12.14547
9808.343,12.15276
9810.271,12.13997
9812.2,12.11537
9814.129,12.12306
9816.057,12.15235
9817.985,12.1629
9819.914,12.15965
9821.843,12.17037
9823.771,12.15604
9825.699,12.16569
9827.628,12.18305
9829.557,12.16683
9831.485,12.15806
9833.413,12.18385
9835.342,12.17266
9837.271,12.16939
9839.199,12.20961
9841.127,12.20536
9843.056,12.21553
9844.984,12.2664
9846.913,12.27102
9848.842,12.27717
9850.77,12.25994
9852.698,12.25475
9854.627,12.27429
9856.556,12.28385
9858.484,12.29778
9860.412,12.29629
9862.341,12.3095
9864.27,12.31608
9866.198,12.31101
9868.126,12.32437
9870.055,12.35349
9871.983,12.35768
9873.912,12.36115
9875.841,12.40427
9877.769,12.40717
9879.697,12.40584
9881.626,12.41777
9883.555,12.43181
9885.482,12.43621
9887.411,12.46284
9889.34,12.48851
9891.269,12.50284
9893.197,12.50489
9895.125,12.48345
9897.054,12.48972
9898.982,12.5254
9900.911,12.54481
9902.84,12.54232
9904.768,12.54817
9906.696,12.55833
9908.625,12.57076
9910.554,12.5756
9912.481,12.5749
9914.41,12.56739
9916.339,12.57291
9918.268,12.57401
9920.196,12.58809
9922.124,12.59727
9924.053,12.60812
9925.981,12.62089
9927.91,12.6535
9929.838,12.6407
9931.767,12.62891
9933.695,12.66029
9935.624,12.67813
9937.553,12.6785
9939.48,12.68875
9941.409,12.70359
9943.338,12.69509
9945.267,12.66759
9947.195,12.68723
9949.123,12.73027
9951.052,12.7191
9952.98,12.71942
9954.909,12.7301
9956.837,12.73771
9958.766,12.74022
9960.694,12.74327
9962.623,12.76705
9964.552,12.78857
9966.479,12.78943
9968.408,12.77729
9970.337,12.77637
9972.266,12.78282
9974.193,12.80458
9976.122,12.81304
9978.051,12.82359
9979.979,12.84838
9981.908,12.83549
9983.836,12.81263
9985.765,12.82811
9987.693,12.84509
9989.622,12.84341
9991.551,12.84322
9993.479,12.84974
9995.407,12.85556
9997.336,12.84785
9999.265,12.82982
10001.19,12.85951
10003.12,12.87677
10005.05,12.86745
10006.98,12.85856
10008.91,12.86819
10010.83,12.88457
10012.76,12.88993
10014.69,12.86647
10016.62,12.88654
10018.55,12.89413
10020.48,12.90507
10022.41,12.90479
10024.33,12.89155
10026.26,12.88678
10028.19,12.90759
10030.12,12.94184
10032.05,12.94771
10033.98,12.94831
10035.91,12.94632
10037.83,12.95206
10039.76,12.9399
10041.69,12.95666
10043.62,12.97869
10045.55,12.95643
10047.48,12.96644
10049.41,12.98875
10051.33,13.01103
10053.26,12.99167
10055.19,12.99544
10057.12,12.98699
10059.05,12.96946
10060.98,12.97921
10062.9,13.01029
10064.83,13.0283
10066.76,13.0328
10068.69,13.03537
10070.62,13.04907
10072.55,13.0428
10074.48,13.01881
10076.4,13.02388
10078.33,13.03658
10080.26,13.02914
10082.19,13.03552
10084.12,13.0526
10086.05,13.03811
10087.98,13.03621
10089.9,13.0608
10091.83,13.05441
10093.76,13.06202
10095.69,13.05292
10097.62,13.03444
10099.55,13.06263
10101.47,13.07449
10103.4,13.07373
10105.33,13.07872
10107.26,13.04727
10109.19,13.04551
10111.12,13.06642
10113.05,13.06791
10114.97,13.06495
10116.9,13.08437
10118.83,13.082
10120.76,13.09686
10122.69,13.09474
10124.62,13.10614
10126.54,13.11018
10128.47,13.10281
10130.4,13.09849
10132.33,13.092
10134.26,13.08803
10136.19,13.10771
10138.12,13.10719
10140.04,13.0953
10141.97,13.10114
10143.9,13.11296
10145.83,13.13086
10147.76,13.08824
10149.69,13.05941
10151.62,13.09226
10153.54,13.12203
10155.47,13.11482
10157.4,13.10093
10159.33,13.12352
10161.26,13.1168
10163.19,13.0912
10165.12,13.11169
10167.04,13.12374
10168.97,13.12532
10170.9,13.11432
10172.83,13.11138
10174.76,13.10707
10176.69,13.11872
10178.61,13.1381
10180.54,13.12729
10182.47,13.10035
10184.4,13.0838
10186.33,13.1113
10188.26,13.12951
10190.19,13.12225
10192.11,13.13868
10194.04,13.13035
10195.97,13.12106
10197.9,13.11296
10199.83,13.11029
10201.76,13.10645
10203.69,13.10249
10205.61,13.11374
10207.54,13.12333
10209.47,13.14457
10211.4,13.1687
10213.33,13.17159
10215.26,13.16443
10217.18,13.13484
10219.11,13.15185
10221.04,13.1559
10222.97,13.15294
10224.9,13.15737
10226.83,13.14852
10228.76,13.12486
10230.68,13.13499
10232.61,13.13435
10234.54,13.12837
10236.47,13.13018
10238.4,13.11982
10240.33,13.10011
10242.25,13.09044
10244.18,13.10276
10246.11,13.11888
10248.04,13.14811
10249.97,13.15323
10251.9,13.16845
10253.83,13.16234
10255.75,13.16848
10257.68,13.16161
10259.61,13.13802
10261.54,13.12937
10263.47,13.14606
10265.4,13.13656
10267.33,13.1139
10269.25,13.10291
10271.18,13.109
10273.11,13.131
10275.04,13.12251
10276.97,13.10352
10278.9,13.09591
10280.83,13.08963
10282.75,13.09502
10284.68,13.08405
10286.61,13.07595
10288.54,13.11304
10290.47,13.13602
10292.4,13.12012
10294.32,13.08204
10296.25,13.07379
10298.18,13.09719
10300.11,13.09989
10302.04,13.09886
10303.97,13.11765
10305.9,13.12585
10307.82,13.07482
10309.75,13.05815
10311.68,13.09563
10313.61,13.11566
10315.54,13.08327
10317.47,13.07585
10319.4,13.08237
10321.32,13.08602
10323.25,13.10091
10325.18,13.09558
10327.11,13.08476
10329.04,13.06921
10330.97,13.10168
10332.89,13.11602
10334.82,13.0837
10336.75,13.08202
10338.68,13.07825
10340.61,13.07337
10342.54,13.07657
10344.47,13.08479
10346.39,13.09547
10348.32,13.06691
10350.25,13.02275
10352.18,13.0283
10354.11,13.02888
10356.04,13.03423
10357.96,13.01286
10359.89,13.02169
10361.82,13.05284
10363.75,13.08956
10365.68,13.0741
10367.61,13.05714
10369.54,13.00615
10371.46,13.02313
10373.39,13.04702
10375.32,13.04798
10377.25,13.00849
10379.18,13.00014
10381.11,13.02625
10383.04,13.05721
10384.96,13.01036
10386.89,13.01022
10388.82,13.05254
10390.75,13.05457
10392.68,13.04435
10394.61,13.02007
10396.54,13.01714
10398.46,12.99664
10400.39,12.99677
10402.32,12.98641
10404.25,13.00962
10406.18,13.01998
10408.11,12.99508
10410.03,12.97087
10411.96,12.97589
10413.89,13.01507
10415.82,13.01868
10417.75,12.98116
10419.68,12.94955
10421.61,12.94107
10423.53,12.94147
10425.46,12.94432
10427.39,12.94817
10429.32,12.94176
10431.25,12.93494
10433.18,12.93836
10435.1,12.92292
10437.03,12.91991
10438.96,12.93291
10440.89,12.93252
10442.82,12.89422
10444.75,12.90183
10446.68,12.9308
10448.6,12.90304
10450.53,12.89184
10452.46,12.90558
10454.39,12.8999
10456.32,12.90662
10458.25,12.92641
10460.18,12.88251
10462.1,12.83675
10464.03,12.84918
10465.96,12.86666
10467.89,12.88839
10469.82,12.86525
10471.75,12.857
10473.67,12.87691
10475.6,12.85925
10477.53,12.86126
10479.46,12.84587
10481.39,12.78502
10483.32,12.75729
10485.25,12.79455
10487.17,12.77185
10489.1,12.75593
10491.03,12.75705
10492.96,12.75602
10494.89,12.73704
10496.82,12.70765
10498.75,12.72575
10500.67,12.71926
10502.6,12.68572
10504.53,12.66187
10506.46,12.68304
10508.39,12.66057
10510.32,12.64391
10512.25,12.64896
10514.17,12.65322
10516.1,12.65064
10518.03,12.65147
10519.96,12.65459
10521.89,12.64581
10523.82,12.60484
10525.74,12.58558
10527.67,12.56404
10529.6,12.55744
10531.53,12.53058
10533.46,12.53246
10535.39,12.55726
10537.32,12.49403
10539.24,12.44554
10541.17,12.4838
10543.1,12.52446
10545.03,12.51815
10546.96,12.5167
10548.89,12.46922
10550.81,12.3975
10552.74,12.36984
10554.67,12.37379
10556.6,12.38741
10558.53,12.36921
10560.46,12.33464
10562.39,12.35096
10564.31,12.33208
10566.24,12.30073
10568.17,12.27372
10570.1,12.25502
10572.03,12.25173
10573.96,12.22445
10575.89,12.17391
10577.81,12.16541
10579.74,12.15718
10581.67,12.10204
10583.6,12.05421
10585.53,12.05945
10587.46,12.04516
10589.38,11.99293
10591.31,11.96358
10593.24,11.99641
10595.17,12.0033
10597.1,11.94468
10599.03,11.89544
10600.96,11.86604
10602.88,11.83938
10604.81,11.81377
10606.74,11.7675
10608.67,11.74466
10610.6,11.7451
10612.53,11.72294
10614.46,11.64671
10616.38,11.61734
10618.31,11.63243
10620.24,11.61056
10622.17,11.59872
10624.1,11.56933
10626.03,11.49793
10627.96,11.46126
10629.88,11.43044
10631.81,11.38796
10633.74,11.32996
10635.67,11.34615
10637.6,11.33041
10639.53,11.26519
10641.45,11.22706
10643.38,11.21022
10645.31,11.18871
10647.24,11.17178
10649.17,11.14821
10651.1,11.06596
10653.03,11.0164
10654.95,11.00222
10656.88,10.97759
10658.81,10.94738
10660.74,10.92777
10662.67,10.8901
10664.6,10.83465
10666.52,10.84172
10668.45,10.84427
10670.38,10.7808
10672.31,10.77881
10674.24,10.78639
10676.17,10.70116
10678.1,10.64625
10680.02,10.6586
10681.95,10.61878
10683.88,10.58873
10685.81,10.56497
10687.74,10.52109
10689.67,10.51002
10691.59,10.54028
10693.52,10.49208
10695.45,10.44673
10697.38,10.42623
10699.31,10.418
10701.24,10.43121
10703.17,10.39466
10705.09,10.41745
10707.02,10.42462
10708.95,10.36254
10710.88,10.33655
10712.81,10.34651
10714.74,10.37972
10716.67,10.394
10718.59,10.40245
10720.52,10.38803
10722.45,10.38317
10724.38,10.38389
10726.31,10.35896
10728.24,10.31356
10730.17,10.29187
10732.09,10.30477
10734.02,10.32558
10735.95,10.31516
10737.88,10.3309
10739.81,10.37724
10741.74,10.39694
10743.67,10.40049
10745.59,10.37797
10747.52,10.40575
10749.45,10.42902
10751.38,10.43674
10753.31,10.45749
10755.24,10.47278
10757.16,10.45023
10759.09,10.38409
10761.02,10.41237
10762.95,10.48267
10764.88,10.53107
10766.81,10.53255
10768.74,10.52429
10770.66,10.5518
10772.59,10.57381
10774.52,10.55818
10776.45,10.56846
10778.38,10.62611
10780.31,10.6245
10782.23,10.58786
10784.16,10.62151
10786.09,10.66334
10788.02,10.74813
10789.95,10.82341
10791.88,10.81368
10793.81,10.77759
10795.73,10.79819
10797.66,10.81082
10799.59,10.83114
10801.52,10.88812
10803.45,10.93879
10805.38,10.9093
10807.3,10.88729
10809.23,10.90508
10811.16,10.98117
10813.09,10.99554
10815.02,11.00812
10816.95,11.02382
10818.88,10.99462
10820.8,11.02171
10822.73,11.06449
10824.66,11.09328
10826.59,11.1137
10828.52,11.14618
10830.45,11.19509
10832.38,11.20427
10834.3,11.26215
10836.23,11.30655
10838.16,11.31684
10840.09,11.3343
10842.02,11.35188
10843.95,11.34257
10845.88,11.39314
10847.8,11.47944
10849.73,11.47635
10851.66,11.42906
10853.59,11.45871
10855.52,11.46491
10857.45,11.46467
10859.38,11.49913
10861.3,11.58512
10863.23,11.58153
10865.16,11.55544
10867.09,11.59367
10869.02,11.6519
10870.95,11.65511
10872.87,11.6649
10874.8,11.65835
10876.73,11.70318
10878.66,11.76361
10880.59,11.78872
10882.52,11.77337
10884.45,11.79906
10886.37,11.8685
10888.3,11.82936
10890.23,11.81728
10892.16,11.91176
10894.09,11.97437
10896.02,11.95325
10897.94,11.94264
10899.87,11.987
10901.8,12.00918
10903.73,12.0181
10905.66,12.00296
10907.59,12.021
10909.52,12.04807
10911.44,12.0722
10913.37,12.10795
10915.3,12.15396
10917.23,12.13755
10919.16,12.13253
10921.09,12.14459
10923.01,12.14379
10924.94,12.19398
10926.87,12.28107
10928.8,12.26315
10930.73,12.2823
10932.66,12.27748
10934.59,12.33263
10936.51,12.37545
10938.44,12.3589
10940.37,12.34373
10942.3,12.35605
10944.23,12.30417
10946.16,12.34084
10948.09,12.3618
10950.01,12.32114
10951.94,12.36709
10953.87,12.47439
10955.8,12.49755
10957.73,12.49713
10959.66,12.53206
10961.58,12.50987
10963.51,12.51896
10965.44,12.60192
10967.37,12.59973
10969.3,12.5424
10971.23,12.51371
10973.16,12.57576
10975.08,12.63134
10977.01,12.63926
10978.94,12.58994
10980.87,12.63181
10982.8,12.66019
10984.73,12.66874
10986.66,12.71165
10988.58,12.74285
10990.51,12.75799
10992.44,12.79353
10994.37,12.77393
10996.3,12.75446
10998.23,12.7884
11000.16,12.7975
11002.08,12.79657
11004.01,12.80949
11005.94,12.80694
11007.87,12.8482
11009.8,12.87539
11011.73,12.82331
11013.65,12.81001
11015.58,12.83654
11017.51,12.83423
11019.44,12.86622
11021.37,12.923
11023.3,12.99046
11025.23,13.01519
11027.15,13.00723
11029.08,12.97223
11031.01,12.94177
11032.94,12.94744
11034.87,12.9497
11036.8,13.0043
11038.72,13.06428
11040.65,13.0583
11042.58,13.05819
11044.51,13.07975
11046.44,13.02827
11048.37,13.06013
11050.3,13.07019
11052.22,13.09762
11054.15,13.11019
11056.08,13.07497
11058.01,13.04435
11059.94,13.03888
11061.87,13.09051
11063.79,13.10196
11065.72,13.08153
11067.65,13.08733
11069.58,13.06389
11071.51,12.99977
11073.44,13.09494
11075.37,13.13947
11077.29,13.12375
11079.22,13.12423
11081.15,13.1786
11083.08,13.20597
11085.01,13.18463
11086.94,13.17486
11088.87,13.17035
11090.79,13.13702
11092.72,13.1352
11094.65,13.14071
11096.58,13.1992
11098.51,13.21829
11100.44,13.14723
11102.37,13.12783
11104.29,13.19199
11106.22,13.18019
11108.15,13.13977
11110.08,13.16647
11112.01,13.15936
11113.94,13.20403
11115.87,13.25285
11117.79,13.22597
11119.72,13.22883
11121.65,13.22502
11123.58,13.24349
11125.51,13.18428
11127.44,13.12095
11129.36,13.19593
11131.29,13.28292
11133.22,13.30924
11135.15,13.34018
11137.08,13.29711
11139.01,13.25602
11140.94,13.25555
11142.86,13.28932
11144.79,13.29777
11146.72,13.31576
11148.65,13.29798
11150.58,13.28825
11152.51,13.33457
11154.43,13.3724
11156.36,13.27395
11158.29,13.27937
11160.22,13.31307
11162.15,13.2866
11164.08,13.25683
11166.01,13.32102
11167.93,13.31852
11169.86,13.32059
11171.79,13.36547
11173.72,13.38491
11175.65,13.34242
11177.58,13.38545
11179.5,13.40946
11181.43,13.3545
11183.36,13.37233
11185.29,13.36581
11187.22,13.41165
11189.15,13.41614
11191.08,13.41634
11193.0,13.43239
11194.93,13.40818
11196.86,13.38672
11198.79,13.42486
11200.72,13.44594
11202.65,13.46912
11204.58,13.47981
11206.5,13.51267
11208.43,13.50342
11210.36,13.5221
11212.29,13.55389
11214.22,13.56218
11216.15,13.53346
11218.08,13.57999
11220.0,13.56516
11221.93,13.63055
11223.86,13.64575
11225.79,13.57231
11227.72,13.50944
11229.65,13.58165
11231.58,13.64239
11233.5,13.62826
11235.43,13.6204
11237.36,13.60819
11239.29,13.64138
11241.22,13.64268
11243.15,13.57533
11245.07,13.51836
11247.0,13.55314
11248.93,13.56403
11250.86,13.58535
11252.79,13.68215
11254.72,13.71401
11256.65,13.67006
11258.57,13.67939
11260.5,13.67896
11262.43,13.70615
11264.36,13.65975
11266.29,13.60979
11268.22,13.70952
11270.14,13.78782
11272.07,13.76448
11274.0,13.76066
11275.93,13.71255
11277.86,13.63078
11279.79,13.67978
11281.72,13.74354
11283.64,13.70719
11285.57,13.69798
11287.5,13.67321
11289.43,13.68375
11291.36,13.67966
11293.29,13.79898
11295.21,13.83347
11297.14,13.70821
11299.07,13.67882
11301.0,13.65437
11302.93,13.6863
11304.86,13.72383
11306.79,13.79532
11308.71,13.8204
11310.64,13.81549
11312.57,13.79395
11314.5,13.71757
11316.43,13.71474
11318.36,13.73737
11320.29,13.80268
11322.21,13.80538
11324.14,13.78592
11326.07,13.77536
11328.0,13.86111
11329.93,13.93688
11331.86,13.88408
11333.79,13.79696
11335.71,13.76767
11337.64,13.77402
11339.57,13.78101
11341.5,13.83277
11343.43,13.86166
11345.36,13.80578
11347.28,13.84892
11349.21,13.83671
11351.14,13.88666
11353.07,13.81787
11355.0,13.79537
11356.93,13.77391
11358.86,13.77207
11360.78,13.77582
11362.71,13.81258
11364.64,13.90471
11366.57,13.89956
11368.5,13.7807
11370.43,13.76597
11372.36,13.85522
11374.28,13.85913
11376.21,13.84661
11378.14,13.876
11380.07,13.86612
11382.0,13.84676
11383.93,13.82277
11385.85,13.90718
11387.78,13.91922
11389.71,13.92525
11391.64,13.93371
11393.57,13.93688
11395.5,13.92214
11397.43,13.89782
11399.35,13.84672
11401.28,13.91056
11403.21,13.94176
11405.14,13.9545
11407.07,13.95409
11409.0,13.94575
11410.92,13.89227
11412.85,13.86669
11414.78,13.83266
11416.71,13.79318
11418.64,13.88052
11420.57,13.98227
11422.5,13.96577
11424.42,13.93931
11426.35,13.94192
11428.28,13.96557
11430.21,14.00993
11432.14,14.0382
11434.07,14.02707
11436.0,13.98938
11437.92,14.01228
11439.85,14.04067
11441.78,14.01939
11443.71,14.02499
11445.64,13.98304
11447.57,13.98448
11449.5,13.98625
11451.42,14.0448
11453.35,14.06378
11455.28,14.01672
11457.21,14.06591
11459.14,14.07232
11461.07,14.0295
11462.99,14.01995
11464.92,14.11418
11466.85,14.11279
11468.78,14.05466
11470.71,13.96988
11472.64,13.97346
11474.57,14.04328
11476.49,14.04131
11478.42,13.98704
11480.35,14.04805
11482.28,14.0744
11484.21,14.11543
11486.14,14.06471
11488.07,13.99564
11489.99,14.05261
11491.92,14.02317
11493.85,13.99754
11495.78,14.02242
11497.71,14.02222
11499.64,14.01444
11501.56,13.95836
11503.49,13.93858
11505.42,13.96255
11507.35,14.09754
11509.28,14.09366
11511.21,13.99563
11513.14,14.04173
11515.06,14.0122
11516.99,13.98555
11518.92,14.04824
11520.85,14.06861
11522.78,14.06193
11524.71,14.07469
11526.63,14.09123
11528.56,14.11786
11530.49,14.17657
11532.42,14.20226
11534.35,14.10768
11536.28,14.13738
11538.21,14.11258
11540.13,14.11687
11542.06,14.18505
11543.99,14.20496
11545.92,14.18139
11547.85,14.16877
11549.78,14.1427
11551.71,14.11073
11553.63,14.09493
11555.56,14.11567
11557.49,14.14071
11559.42,14.11276
11561.35,14.09973
11563.28,14.1086
11565.21,14.1168
11567.13,14.14459
11569.06,14.18
11570.99,14.17424
11572.92,14.10792
11574.85,14.14037
11576.78,14.11575
11578.7,14.21591
11580.63,14.18904
11582.56,14.11882
11584.49,14.06776
11586.42,14.10045
11588.35,14.19519
11590.28,14.28133
11592.2,14.17556
11594.13,14.06298
11596.06,14.09084
11597.99,14.16574
11599.92,14.17085
11601.85,14.14671
11603.78,14.09124
11605.7,14.19299
11607.63,14.26359
11609.56,14.23953
11611.49,14.16427
11613.42,14.09512
11615.35,14.18937
11617.27,14.25072
11619.2,14.22549
11621.13,14.19954
11623.06,14.17879
11624.99,14.19791
11626.92,14.16186
11628.85,14.12044
11630.77,14.20772
11632.7,14.24491
11634.63,14.26976
11636.56,14.23156
11638.49,14.22797
11640.42,14.28729
11642.34,14.23862
11644.27,14.21289
11646.2,14.18332
11648.13,14.19686
11650.06,14.12617
11651.99,14.17998
11653.92,14.22931
11655.84,14.16613
11657.77,14.18494
11659.7,14.22867
11661.63,14.24607
11663.56,14.27639
11665.49,14.20333
11667.42,14.19152
11669.34,14.30454
11671.27,14.36229
11673.2,14.34964
11675.13,14.2414
11677.06,14.2372
11678.99,14.28751
11680.92,14.28437
11682.84,14.23691
11684.77,14.17704
11686.7,14.17139
11688.63,14.15472
11690.56,14.28271
11692.49,14.29986
11694.41,14.18499
11696.34,14.21981
11698.27,14.15092
11700.2,14.03559
11702.13,14.10091
11704.06,14.19667
11705.99,14.19854
11707.91,14.08129
11709.84,14.15076
11711.77,14.3339
11713.7,14.43363
11715.63,14.29233
11717.56,14.14894
11719.48,14.16476
11721.41,14.16261
11723.34,14.09932
11725.27,14.11637
11727.2,14.16667
11729.13,14.12555
11731.06,14.15754
11732.98,14.26631
11734.91,14.32034
11736.84,14.17829
11738.77,14.10549
11740.7,14.16008
11742.63,14.14211
11744.56,14.15402
11746.48,14.15286
11748.41,14.16772
11750.34,14.16005
11752.27,14.14665
11754.2,14.2319
11756.13,14.16399
11758.05,14.11467
11759.98,14.06977
11761.91,14.08143
11763.84,14.22758
11765.77,14.17899
11767.7,14.13754
11769.63,14.14774
11771.55,14.14494
11773.48,14.18067
11775.41,14.21252
11777.34,14.30159
11779.27,14.37092
11781.2,14.19735
11783.13,14.136
11785.05,14.25867
11786.98,14.29152
11788.91,14.26079
11790.84,14.16757
11792.77,14.15848
11794.7,14.29139
11796.63,14.28441
11798.55,14.17773
11800.48,14.12366
11802.41,14.08621
11804.34,14.13046
11806.27,14.14455
11808.2,14.11788
11810.12,14.10418
11812.05,14.13983
11813.98,14.25859
11815.91,14.28159
11817.84,14.19199
11819.77,14.17882
11821.7,14.24382
11823.62,14.22334
11825.55,14.24417
11827.48,14.22983
11829.41,14.15818
11831.34,14.12291
11833.27,14.06335
11835.19,14.04397
11837.12,14.23859
11839.05,14.30245
11840.98,14.33339
11842.91,14.2267
11844.84,14.14136
11846.77,14.21416
11848.69,14.38849
11850.62,14.26202
11852.55,14.22946
11854.48,14.14294
11856.41,14.10112
11858.34,14.07858
11860.27,14.19881
11862.19,14.19807
11864.12,14.12819
11866.05,14.08934
11867.98,13.99047
11869.91,13.92858
11871.84,13.96404
11873.76,14.03642
11875.69,14.0703
11877.62,14.01059
11879.55,14.06893
11881.48,14.15763
11883.41,14.15282
11885.34,14.06595
11887.26,13.94344
11889.19,14.00143
11891.12,14.1046
11893.05,14.09035
11894.98,13.9976
11896.91,14.10164
11898.83,14.157
11900.76,14.1176
11902.69,14.09758
11904.62,13.93545
11906.55,13.84749
11908.48,13.81115
11910.41,13.85108
11912.33,13.99673
11914.26,14.08517
11916.19,14.03299
11918.12,14.01856
11920.05,14.15019
11921.98,14.16338
11923.91,14.02052
11925.83,13.94269
11927.76,13.96467
11929.69,14.01161
11931.62,14.085
11933.55,14.03184
11935.48,13.98399
11937.41,13.95647
11939.33,13.85009
11941.26,13.92324
11943.19,13.95127
11945.12,13.80446
11947.05,13.79534
11948.98,13.90669
11950.9,13.88891
11952.83,13.9105
11954.76,13.98373
11956.69,14.00767
11958.62,13.94639
11960.55,13.80316
11962.48,13.8722
11964.4,14.03016
11966.33,14.02732
11968.26,13.89747
11970.19,13.85945
11972.12,13.8319
11974.05,13.86234
11975.98,14.0415
11977.9,14.04422
11979.83,13.95222
11981.76,13.95947
11983.69,13.852
11985.62,13.70235
11987.55,13.73108
11989.47,13.81796
11991.4,13.85411
11993.33,13.84804
11995.26,13.74364
11997.19,13.68171
11999.12,13.80696
